frequency (Hz),magnitude L (dB),phase L (deg),magnitude R (dB),phase R (deg)
0.0000,9.6973,0.0000,9.6973,0.0000
11.7159,6.5369,-21.3477,6.5369,-21.3477
23.4318,5.2128,-19.9406,5.2128,-19.9406
35.1477,6.0329,-15.9682,6.0329,-15.9682
46.8636,4.0665,-36.3143,4.0665,-36.3143
58.5794,2.5615,-37.7336,2.5615,-37.7336
70.2953,0.8304,-33.6173,0.8304,-33.6173
82.0112,0.4792,-30.3222,0.4792,-30.3222
93.7271,-0.0606,-31.1769,-0.0606,-31.1769
105.4430,-1.8491,-24.3972,-1.8491,-24.3972
117.1589,-1.8827,-17.2128,-1.8827,-17.2128
128.8748,-1.3299,-12.4978,-1.3299,-12.4978
140.5907,-1.5266,-13.3741,-1.5266,-13.3741
152.3066,-1.6435,-5.8344,-1.6435,-5.8344
164.0225,-0.4664,-2.2960,-0.4664,-2.2960
175.7383,0.1303,-4.6369,0.1303,-4.6369
187.4542,0.4545,-7.0580,0.4545,-7.0580
199.1701,0.6444,-9.7634,0.6444,-9.7634
210.8860,0.7159,-13.1856,0.7159,-13.1856
222.6019,0.3764,-16.5345,0.3764,-16.5345
234.3178,0.1649,-17.8379,0.1649,-17.8379
246.0337,-0.0866,-19.9408,-0.0866,-19.9408
257.7496,-0.4877,-21.7046,-0.4877,-21.7046
269.4655,-0.7955,-23.0136,-0.7955,-23.0136
281.1814,-1.4564,-25.4037,-1.4564,-25.4037
292.8972,-2.4396,-24.4114,-2.4396,-24.4114
304.6131,-2.8034,-17.4168,-2.8034,-17.4168
316.3290,-2.4982,-19.0849,-2.4982,-19.0849
328.0449,-2.8950,-18.9489,-2.8950,-18.9489
339.7608,-3.0919,-18.8037,-3.0919,-18.8037
351.4767,-3.9464,-21.8321,-3.9464,-21.8321
363.1926,-4.9139,-14.8520,-4.9139,-14.8520
374.9085,-4.9587,-9.1670,-4.9587,-9.1670
386.6244,-4.8577,-5.3357,-4.8577,-5.3357
398.3402,-4.7256,-2.5029,-4.7256,-2.5029
410.0561,-4.5847,-0.2974,-4.5847,-0.2974
421.7720,-4.4480,1.4606,-4.4480,1.4606
433.4879,-4.3184,2.8369,-4.3184,2.8369
445.2038,-4.2004,3.9031,-4.2004,3.9031
456.9197,-4.0988,4.7181,-4.0988,4.7181
468.6356,-4.0189,5.2676,-4.0189,5.2676
480.3515,-3.9660,5.5631,-3.9660,5.5631
492.0674,-3.9474,5.6107,-3.9474,5.6107
503.7833,-3.9785,5.3636,-3.9785,5.3636
515.4991,-4.0807,4.7742,-4.0807,4.7742
527.2150,-4.2992,3.7494,-4.2992,3.7494
538.9309,-4.7305,2.1771,-4.7305,2.1771
550.6468,-5.6203,0.1910,-5.6203,0.1910
562.3627,-7.6283,0.5623,-7.6283,0.5623
574.0786,-10.3880,22.2695,-10.3880,22.2695
585.7945,-7.7471,49.6746,-7.7471,49.6746
597.5104,-4.9072,50.7322,-4.9072,50.7322
609.2263,-3.5359,47.2996,-3.5359,47.2996
620.9422,-2.7013,44.4553,-2.7013,44.4553
632.6580,-2.3189,41.3890,-2.3189,41.3890
644.3739,-2.2621,42.0508,-2.2621,42.0508
656.0898,-1.4311,45.2919,-1.4311,45.2919
667.8057,-0.4067,42.1834,-0.4067,42.1834
679.5216,0.1307,37.9369,0.1307,37.9369
691.2375,0.3961,33.2161,0.3961,33.2161
702.9534,0.1254,29.1028,0.1254,29.1028
714.6693,-0.0507,28.9935,-0.0507,28.9935
726.3852,0.0167,28.4452,0.0167,28.4452
738.1010,0.0821,27.4402,0.0821,27.4402
749.8169,0.1112,26.2883,0.1112,26.2883
761.5328,0.0826,25.0868,0.0826,25.0868
773.2487,-0.0373,24.1711,-0.0373,24.1711
784.9646,-0.1830,24.1924,-0.1830,24.1924
796.6805,-0.2223,24.7065,-0.2223,24.7065
808.3964,-0.1983,25.0122,-0.1983,25.0122
820.1123,-0.1658,25.1380,-0.1658,25.1380
831.8282,-0.1366,25.2302,-0.1366,25.2302
843.5441,-0.1110,25.3260,-0.1110,25.3260
855.2599,-0.0859,25.4707,-0.0859,25.4707
866.9758,-0.0607,25.6782,-0.0607,25.6782
878.6917,-0.0297,25.9997,-0.0297,25.9997
890.4076,0.0196,26.4824,0.0196,26.4824
902.1235,0.1266,27.0729,0.1266,27.0729
913.8394,0.3046,27.2847,0.3046,27.2847
925.5553,0.4665,26.8532,0.4665,26.8532
937.2712,0.5569,26.2228,0.5569,26.2228
948.9871,0.6028,25.7020,0.6028,25.7020
960.7030,0.6318,25.3228,0.6318,25.3228
972.4188,0.6558,25.0417,0.6558,25.0417
984.1347,0.6797,24.8219,0.6797,24.8219
995.8506,0.7046,24.6466,0.7046,24.6466
1007.5665,0.7294,24.4864,0.7294,24.4864
1019.2824,0.7559,24.3297,0.7559,24.3297
1030.9983,0.7818,24.1763,0.7818,24.1763
1042.7142,0.8070,24.0103,0.8070,24.0103
1054.4301,0.8290,23.8335,0.8290,23.8335
1066.1460,0.8471,23.6336,0.8471,23.6336
1077.8619,0.8588,23.4233,0.8588,23.4233
1089.5777,0.8609,23.2102,0.8609,23.2102
1101.2936,0.8524,23.0148,0.8524,23.0148
1113.0095,0.8305,22.8709,0.8305,22.8709
1124.7254,0.7984,22.8195,0.7984,22.8195
1136.4413,0.7624,22.9044,0.7624,22.9044
1148.1572,0.7326,23.1230,0.7326,23.1230
1159.8731,0.7164,23.4359,0.7164,23.4359
1171.5890,0.7181,23.8048,0.7181,23.8048
1183.3049,0.7370,24.1603,0.7370,24.1603
1195.0207,0.7679,24.4754,0.7679,24.4754
1206.7366,0.8055,24.7371,0.8055,24.7371
1218.4525,0.8467,24.9492,0.8467,24.9492
1230.1684,0.8886,25.1169,0.8886,25.1169
1241.8843,0.9303,25.2591,0.9303,25.2591
1253.6002,0.9711,25.3722,0.9711,25.3722
1265.3161,1.0101,25.4676,1.0101,25.4676
1277.0320,1.0470,25.5506,1.0470,25.5506
1288.7479,1.0828,25.6259,1.0828,25.6259
1300.4638,1.1167,25.6994,1.1167,25.6994
1312.1796,1.1503,25.7615,1.1503,25.7615
1323.8955,1.1818,25.8294,1.1818,25.8294
1335.6114,1.2121,25.8967,1.2121,25.8967
1347.3273,1.2409,25.9647,1.2409,25.9647
1359.0432,1.2687,26.0419,1.2687,26.0419
1370.7591,1.2964,26.1215,1.2964,26.1215
1382.4750,1.3230,26.2070,1.3230,26.2070
1394.1909,1.3490,26.3058,1.3490,26.3058
1405.9068,1.3738,26.4145,1.3738,26.4145
1417.6227,1.3990,26.5361,1.3990,26.5361
1429.3385,1.4242,26.6730,1.4242,26.6730
1441.0544,1.4502,26.8226,1.4502,26.8226
1452.7703,1.4767,26.9965,1.4767,26.9965
1464.4862,1.5054,27.1933,1.5054,27.1933
1476.2021,1.5364,27.4110,1.5364,27.4110
1487.9180,1.5720,27.6534,1.5720,27.6534
1499.6339,1.6133,27.9162,1.6133,27.9162
1511.3498,1.6621,28.1929,1.6621,28.1929
1523.0657,1.7184,28.4657,1.7184,28.4657
1534.7815,1.7852,28.7220,1.7852,28.7220
1546.4974,1.8602,28.9411,1.8602,28.9411
1558.2133,1.9415,29.1006,1.9415,29.1006
1569.9292,2.0264,29.1976,2.0264,29.1976
1581.6451,2.1116,29.2362,2.1116,29.2362
1593.3610,2.1943,29.2253,2.1943,29.2253
1605.0769,2.2759,29.1793,2.2759,29.1793
1616.7928,2.3560,29.1203,2.3560,29.1203
1628.5087,2.4379,29.0440,2.4379,29.0440
1640.2246,2.5257,28.9470,2.5257,28.9470
1651.9404,2.6247,28.7956,2.6247,28.7956
1663.6563,2.7359,28.5130,2.7359,28.5130
1675.3722,2.8511,27.9784,2.8511,27.9784
1687.0881,2.9413,27.1210,2.9413,27.1210
1698.8040,2.9652,26.0757,2.9652,26.0757
1710.5199,2.9167,25.2092,2.9167,25.2092
1722.2358,2.8378,24.7364,2.8378,24.7364
1733.9517,2.7672,24.5971,2.7672,24.5971
1745.6676,2.7199,24.6317,2.7199,24.6317
1757.3835,2.6919,24.7384,2.6919,24.7384
1769.0993,2.6801,24.8644,2.6801,24.8644
1780.8152,2.6790,24.9931,2.6790,24.9931
1792.5311,2.6846,25.1038,2.6846,25.1038
1804.2470,2.6954,25.2078,2.6954,25.2078
1815.9629,2.7099,25.3004,2.7099,25.3004
1827.6788,2.7266,25.3825,2.7266,25.3825
1839.3947,2.7459,25.4569,2.7459,25.4569
1851.1106,2.7660,25.5277,2.7660,25.5277
1862.8265,2.7875,25.5892,2.7875,25.5892
1874.5423,2.8101,25.6509,2.8101,25.6509
1886.2582,2.8335,25.7048,2.8335,25.7048
1897.9741,2.8573,25.7630,2.8573,25.7630
1909.6900,2.8822,25.8138,2.8822,25.8138
1921.4059,2.9075,25.8663,2.9075,25.8663
1933.1218,2.9332,25.9202,2.9332,25.9202
1944.8377,2.9600,25.9700,2.9600,25.9700
1956.5536,2.9871,26.0238,2.9871,26.0238
1968.2695,3.0146,26.0779,3.0146,26.0779
1979.9854,3.0434,26.1314,3.0434,26.1314
1991.7012,3.0723,26.1858,3.0723,26.1858
2003.4171,3.1023,26.2382,3.1023,26.2382
2015.1330,3.1329,26.2911,3.1329,26.2911
2026.8489,3.1648,26.3518,3.1648,26.3518
2038.5648,3.1977,26.4079,3.1977,26.4079
2050.2807,3.2316,26.4667,3.2316,26.4667
2061.9966,3.2666,26.5252,3.2666,26.5252
2073.7125,3.3033,26.5819,3.3033,26.5819
2085.4284,3.3412,26.6398,3.3412,26.6398
2097.1443,3.3812,26.6957,3.3812,26.6957
2108.8601,3.4226,26.7517,3.4226,26.7517
2120.5760,3.4664,26.8006,3.4664,26.8006
2132.2919,3.5125,26.8453,3.5125,26.8453
2144.0078,3.5614,26.8766,3.5614,26.8766
2155.7237,3.6125,26.9021,3.6125,26.9021
2167.4396,3.6665,26.9075,3.6665,26.9075
2179.1555,3.7229,26.8924,3.7229,26.8924
2190.8714,3.7817,26.8508,3.7817,26.8508
2202.5873,3.8426,26.7752,3.8426,26.7752
2214.3031,3.9043,26.6557,3.9043,26.6557
2226.0190,3.9652,26.4966,3.9652,26.4966
2237.7349,4.0233,26.2855,4.0233,26.2855
2249.4508,4.0771,26.0333,4.0771,26.0333
2261.1667,4.1234,25.7398,4.1234,25.7398
2272.8826,4.1615,25.4279,4.1615,25.4279
2284.5985,4.1897,25.1082,4.1897,25.1082
2296.3144,4.2090,24.8081,4.2090,24.8081
2308.0303,4.2205,24.5381,4.2205,24.5381
2319.7462,4.2268,24.3126,4.2268,24.3126
2331.4620,4.2301,24.1333,4.2301,24.1333
2343.1779,4.2333,24.0018,4.2333,24.0018
2354.8938,4.2372,23.9084,4.2372,23.9084
2366.6097,4.2436,23.8488,4.2436,23.8488
2378.3256,4.2527,23.8125,4.2527,23.8125
2390.0415,4.2655,23.7946,4.2655,23.7946
2401.7574,4.2816,23.7875,4.2816,23.7875
2413.4733,4.3006,23.7849,4.3006,23.7849
2425.1892,4.3224,23.7837,4.3224,23.7837
2436.9051,4.3472,23.7841,4.3472,23.7841
2448.6209,4.3743,23.7750,4.3743,23.7750
2460.3368,4.4032,23.7645,4.4032,23.7645
2472.0527,4.4343,23.7448,4.4343,23.7448
2483.7686,4.4667,23.7147,4.4667,23.7147
2495.4845,4.5006,23.6786,4.5006,23.6786
2507.2004,4.5358,23.6295,4.5358,23.6295
2518.9163,4.5718,23.5709,4.5718,23.5709
2530.6322,4.6082,23.4968,4.6082,23.4968
2542.3481,4.6451,23.4123,4.6451,23.4123
2554.0639,4.6821,23.3138,4.6821,23.3138
2565.7798,4.7191,23.1987,4.7191,23.1987
2577.4957,4.7551,23.0721,4.7551,23.0721
2589.2116,4.7905,22.9253,4.7905,22.9253
2600.9275,4.8236,22.7641,4.8236,22.7641
2612.6434,4.8541,22.5903,4.8541,22.5903
2624.3593,4.8810,22.4072,4.8810,22.4072
2636.0752,4.9032,22.2235,4.9032,22.2235
2647.7911,4.9206,22.0502,4.9206,22.0502
2659.5070,4.9339,21.9080,4.9339,21.9080
2671.2228,4.9455,21.8086,4.9455,21.8086
2682.9387,4.9589,21.7533,4.9589,21.7533
2694.6546,4.9775,21.7267,4.9775,21.7267
2706.3705,5.0018,21.7124,5.0018,21.7124
2718.0864,5.0321,21.6912,5.0321,21.6912
2729.8023,5.0664,21.6507,5.0664,21.6507
2741.5182,5.1027,21.5870,5.1027,21.5870
2753.2341,5.1404,21.4998,5.1404,21.4998
2764.9500,5.1780,21.3924,5.1780,21.3924
2776.6659,5.2148,21.2702,5.2148,21.2702
2788.3817,5.2510,21.1354,5.2510,21.1354
2800.0976,5.2867,20.9887,5.2867,20.9887
2811.8135,5.3213,20.8323,5.3213,20.8323
2823.5294,5.3545,20.6671,5.3545,20.6671
2835.2453,5.3873,20.4994,5.3873,20.4994
2846.9612,5.4185,20.3228,5.4185,20.3228
2858.6771,5.4489,20.1418,5.4489,20.1418
2870.3930,5.4782,19.9580,5.4782,19.9580
2882.1089,5.5064,19.7746,5.5064,19.7746
2893.8247,5.5334,19.5847,5.5334,19.5847
2905.5406,5.5599,19.3969,5.5599,19.3969
2917.2565,5.5850,19.2088,5.5850,19.2088
2928.9724,5.6090,19.0192,5.6090,19.0192
2940.6883,5.6321,18.8395,5.6321,18.8395
2952.4042,5.6545,18.6592,5.6545,18.6592
2964.1201,5.6764,18.4890,5.6764,18.4890
2975.8360,5.6980,18.3244,5.6980,18.3244
2987.5519,5.7203,18.1732,5.7203,18.1732
2999.2678,5.7440,18.0302,5.7440,18.0302
3010.9836,5.7699,17.8952,5.7699,17.8952
3022.6995,5.7996,17.7606,5.7996,17.7606
3034.4154,5.8333,17.6122,5.8333,17.6122
3046.1313,5.8698,17.4389,5.8698,17.4389
3057.8472,5.9082,17.2295,5.9082,17.2295
3069.5631,5.9453,16.9805,5.9453,16.9805
3081.2790,5.9790,16.6985,5.9790,16.6985
3092.9949,6.0086,16.3969,6.0086,16.3969
3104.7108,6.0332,16.0838,6.0332,16.0838
3116.4267,6.0534,15.7700,6.0534,15.7700
3128.1425,6.0701,15.4611,6.0701,15.4611
3139.8584,6.0834,15.1611,6.0834,15.1611
3151.5743,6.0943,14.8707,6.0943,14.8707
3163.2902,6.1035,14.5926,6.1035,14.5926
3175.0061,6.1110,14.3247,6.1110,14.3247
3186.7220,6.1175,14.0685,6.1175,14.0685
3198.4379,6.1230,13.8225,6.1230,13.8225
3210.1538,6.1275,13.5861,6.1275,13.5861
3221.8697,6.1319,13.3592,6.1319,13.3592
3233.5856,6.1356,13.1453,6.1356,13.1453
3245.3014,6.1391,12.9376,6.1391,12.9376
3257.0173,6.1425,12.7428,6.1425,12.7428
3268.7332,6.1461,12.5587,6.1461,12.5587
3280.4491,6.1498,12.3835,6.1498,12.3835
3292.1650,6.1543,12.2203,6.1543,12.2203
3303.8809,6.1595,12.0681,6.1595,12.0681
3315.5968,6.1668,11.9277,6.1668,11.9277
3327.3127,6.1755,11.7989,6.1755,11.7989
3339.0286,6.1869,11.6744,6.1869,11.6744
3350.7444,6.2019,11.5574,6.2019,11.5574
3362.4603,6.2209,11.4358,6.2209,11.4358
3374.1762,6.2444,11.3045,6.2444,11.3045
3385.8921,6.2721,11.1465,6.2721,11.1465
3397.6080,6.3028,10.9503,6.3028,10.9503
3409.3239,6.3341,10.7085,6.3341,10.7085
3421.0398,6.3633,10.4208,6.3633,10.4208
3432.7557,6.3876,10.0959,6.3876,10.0959
3444.4716,6.4059,9.7522,6.4059,9.7522
3456.1875,6.4180,9.4017,6.4180,9.4017
3467.9033,6.4254,9.0589,6.4254,9.0589
3479.6192,6.4288,8.7280,6.4288,8.7280
3491.3351,6.4299,8.4159,6.4299,8.4159
3503.0510,6.4292,8.1174,6.4292,8.1174
3514.7669,6.4277,7.8303,6.4277,7.8303
3526.4828,6.4262,7.5534,6.4262,7.5534
3538.1987,6.4238,7.2837,6.4238,7.2837
3549.9146,6.4219,7.0177,6.4219,7.0177
3561.6305,6.4195,6.7574,6.4195,6.7574
3573.3464,6.4173,6.4969,6.4173,6.4969
3585.0622,6.4146,6.2388,6.4146,6.2388
3596.7781,6.4121,5.9787,6.4121,5.9787
3608.4940,6.4095,5.7201,6.4095,5.7201
3620.2099,6.4065,5.4531,6.4065,5.4531
3631.9258,6.4033,5.1823,6.4033,5.1823
3643.6417,6.3990,4.9013,6.3990,4.9013
3655.3576,6.3939,4.6098,6.3939,4.6098
3667.0735,6.3861,4.3069,6.3861,4.3069
3678.7894,6.3750,3.9934,6.3750,3.9934
3690.5052,6.3595,3.6738,6.3595,3.6738
3702.2211,6.3387,3.3608,6.3387,3.3608
3713.9370,6.3119,3.0648,6.3119,3.0648
3725.6529,6.2804,2.7995,6.2804,2.7995
3737.3688,6.2461,2.5771,6.2461,2.5771
3749.0847,6.2108,2.3999,6.2108,2.3999
3760.8006,6.1774,2.2646,6.1774,2.2646
3772.5165,6.1470,2.1642,6.1470,2.1642
3784.2324,6.1204,2.0839,6.1204,2.0839
3795.9483,6.0976,2.0179,6.0976,2.0179
3807.6641,6.0783,1.9556,6.0783,1.9556
3819.3800,6.0621,1.8969,6.0621,1.8969
3831.0959,6.0484,1.8358,6.0484,1.8358
3842.8118,6.0365,1.7709,6.0365,1.7709
3854.5277,6.0262,1.7021,6.0262,1.7021
3866.2436,6.0172,1.6289,6.0172,1.6289
3877.9595,6.0091,1.5502,6.0091,1.5502
3889.6754,6.0016,1.4691,6.0016,1.4691
3901.3913,5.9949,1.3833,5.9949,1.3833
3913.1072,5.9886,1.2957,5.9886,1.2957
3924.8230,5.9827,1.2040,5.9827,1.2040
3936.5389,5.9770,1.1105,5.9770,1.1105
3948.2548,5.9718,1.0150,5.9718,1.0150
3959.9707,5.9666,0.9159,5.9666,0.9159
3971.6866,5.9617,0.8162,5.9617,0.8162
3983.4025,5.9570,0.7139,5.9570,0.7139
3995.1184,5.9525,0.6096,5.9525,0.6096
4006.8343,5.9480,0.5047,5.9480,0.5047
4018.5502,5.9437,0.3967,5.9437,0.3967
4030.2660,5.9394,0.2880,5.9394,0.2880
4041.9819,5.9352,0.1786,5.9352,0.1786
4053.6978,5.9308,0.0676,5.9308,0.0676
4065.4137,5.9268,-0.0462,5.9268,-0.0462
4077.1296,5.9226,-0.1605,5.9226,-0.1605
4088.8455,5.9183,-0.2768,5.9183,-0.2768
4100.5614,5.9141,-0.3936,5.9141,-0.3936
4112.2773,5.9097,-0.5123,5.9097,-0.5123
4123.9932,5.9054,-0.6319,5.9054,-0.6319
4135.7091,5.9009,-0.7542,5.9009,-0.7542
4147.4249,5.8962,-0.8761,5.8962,-0.8761
4159.1408,5.8915,-1.0008,5.8915,-1.0008
4170.8567,5.8864,-1.1254,5.8864,-1.1254
4182.5726,5.8812,-1.2525,5.8812,-1.2525
4194.2885,5.8757,-1.3804,5.8757,-1.3804
4206.0044,5.8699,-1.5090,5.8699,-1.5090
4217.7203,5.8641,-1.6383,5.8641,-1.6383
4229.4362,5.8575,-1.7686,5.8575,-1.7686
4241.1521,5.8508,-1.8991,5.8508,-1.8991
4252.8680,5.8439,-2.0317,5.8439,-2.0317
4264.5838,5.8363,-2.1619,5.8363,-2.1619
4276.2997,5.8284,-2.2937,5.8284,-2.2937
4288.0156,5.8202,-2.4247,5.8202,-2.4247
4299.7315,5.8114,-2.5545,5.8114,-2.5545
4311.4474,5.8023,-2.6851,5.8023,-2.6851
4323.1633,5.7925,-2.8141,5.7925,-2.8141
4334.8792,5.7823,-2.9415,5.7823,-2.9415
4346.5951,5.7716,-3.0671,5.7716,-3.0671
4358.3110,5.7605,-3.1910,5.7605,-3.1910
4370.0268,5.7488,-3.3120,5.7488,-3.3120
4381.7427,5.7367,-3.4304,5.7367,-3.4304
4393.4586,5.7241,-3.5463,5.7241,-3.5463
4405.1745,5.7111,-3.6572,5.7111,-3.6572
4416.8904,5.6976,-3.7647,5.6976,-3.7647
4428.6063,5.6839,-3.8670,5.6839,-3.8670
4440.3222,5.6700,-3.9658,5.6700,-3.9658
4452.0381,5.6558,-4.0588,5.6558,-4.0588
4463.7540,5.6411,-4.1455,5.6411,-4.1455
4475.4699,5.6265,-4.2266,5.6265,-4.2266
4487.1857,5.6118,-4.3019,5.6118,-4.3019
4498.9016,5.5971,-4.3711,5.5971,-4.3711
4510.6175,5.5826,-4.4311,5.5826,-4.4311
4522.3334,5.5682,-4.4872,5.5682,-4.4872
4534.0493,5.5546,-4.5357,5.5546,-4.5357
4545.7652,5.5411,-4.5751,5.5411,-4.5751
4557.4811,5.5283,-4.6085,5.5283,-4.6085
4569.1970,5.5165,-4.6367,5.5165,-4.6367
4580.9129,5.5053,-4.6558,5.5053,-4.6558
4592.6288,5.4953,-4.6700,5.4953,-4.6700
4604.3446,5.4863,-4.6794,5.4863,-4.6794
4616.0605,5.4785,-4.6821,5.4785,-4.6821
4627.7764,5.4722,-4.6801,5.4722,-4.6801
4639.4923,5.4674,-4.6759,5.4674,-4.6759
4651.2082,5.4640,-4.6677,5.4640,-4.6677
4662.9241,5.4628,-4.6569,5.4628,-4.6569
4674.6400,5.4630,-4.6454,5.4630,-4.6454
4686.3559,5.4649,-4.6358,5.4649,-4.6358
4698.0718,5.4690,-4.6268,5.4690,-4.6268
4709.7876,5.4750,-4.6201,5.4750,-4.6201
4721.5035,5.4826,-4.6192,5.4826,-4.6192
4733.2194,5.4926,-4.6229,5.4926,-4.6229
4744.9353,5.5044,-4.6325,5.5044,-4.6325
4756.6512,5.5176,-4.6500,5.5176,-4.6500
4768.3671,5.5329,-4.6785,5.5329,-4.6785
4780.0830,5.5498,-4.7154,5.5498,-4.7154
4791.7989,5.5682,-4.7653,5.5682,-4.7653
4803.5148,5.5882,-4.8290,5.5882,-4.8290
4815.2307,5.6092,-4.9038,5.6092,-4.9038
4826.9465,5.6318,-4.9957,5.6318,-4.9957
4838.6624,5.6550,-5.1045,5.6550,-5.1045
4850.3783,5.6791,-5.2276,5.6791,-5.2276
4862.0942,5.7040,-5.3686,5.7040,-5.3686
4873.8101,5.7290,-5.5279,5.7290,-5.5279
4885.5260,5.7542,-5.7059,5.7542,-5.7059
4897.2419,5.7797,-5.9023,5.7797,-5.9023
4908.9578,5.8049,-6.1180,5.8049,-6.1180
4920.6737,5.8296,-6.3530,5.8296,-6.3530
4932.3896,5.8539,-6.6082,5.8539,-6.6082
4944.1054,5.8773,-6.8816,5.8773,-6.8816
4955.8213,5.8995,-7.1755,5.8995,-7.1755
4967.5372,5.9206,-7.4885,5.9206,-7.4885
4979.2531,5.9402,-7.8212,5.9402,-7.8212
4990.9690,5.9581,-8.1737,5.9581,-8.1737
5002.6849,5.9741,-8.5438,5.9741,-8.5438
5014.4008,5.9879,-8.9322,5.9879,-8.9322
5026.1167,5.9995,-9.3373,5.9995,-9.3373
5037.8326,6.0085,-9.7593,6.0085,-9.7593
5049.5485,6.0150,-10.1979,6.0150,-10.1979
5061.2643,6.0185,-10.6516,6.0185,-10.6516
5072.9802,6.0187,-11.1195,6.0187,-11.1195
5084.6961,6.0160,-11.6003,6.0160,-11.6003
5096.4120,6.0097,-12.0971,6.0097,-12.0971
5108.1279,6.0002,-12.6031,6.0002,-12.6031
5119.8438,5.9865,-13.1187,5.9865,-13.1187
5131.5597,5.9692,-13.6481,5.9692,-13.6481
5143.2756,5.9479,-14.1834,5.9479,-14.1834
5154.9915,5.9223,-14.7275,5.9223,-14.7275
5166.7073,5.8926,-15.2786,5.8926,-15.2786
5178.4232,5.8583,-15.8354,5.8583,-15.8354
5190.1391,5.8191,-16.3975,5.8191,-16.3975
5201.8550,5.7757,-16.9634,5.7757,-16.9634
5213.5709,5.7272,-17.5313,5.7272,-17.5313
5225.2868,5.6733,-18.1018,5.6733,-18.1018
5237.0027,5.6140,-18.6735,5.6140,-18.6735
5248.7186,5.5494,-19.2424,5.5494,-19.2424
5260.4345,5.4784,-19.8089,5.4784,-19.8089
5272.1504,5.4014,-20.3716,5.4014,-20.3716
5283.8662,5.3180,-20.9276,5.3180,-20.9276
5295.5821,5.2277,-21.4741,5.2277,-21.4741
5307.2980,5.1303,-22.0114,5.1303,-22.0114
5319.0139,5.0252,-22.5323,5.0252,-22.5323
5330.7298,4.9122,-23.0337,4.9122,-23.0337
5342.4457,4.7908,-23.5131,4.7908,-23.5131
5354.1616,4.6609,-23.9622,4.6609,-23.9622
5365.8775,4.5219,-24.3777,4.5219,-24.3777
5377.5934,4.3734,-24.7525,4.3734,-24.7525
5389.3093,4.2156,-25.0763,4.2156,-25.0763
5401.0251,4.0481,-25.3405,4.0481,-25.3405
5412.7410,3.8711,-25.5365,3.8711,-25.5365
5424.4569,3.6849,-25.6512,3.6849,-25.6512
5436.1728,3.4898,-25.6703,3.4898,-25.6703
5447.8887,3.2872,-25.5835,3.2872,-25.5835
5459.6046,3.0781,-25.3746,3.0781,-25.3746
5471.3205,2.8646,-25.0296,2.8646,-25.0296
5483.0364,2.6489,-24.5360,2.6489,-24.5360
5494.7523,2.4343,-23.8806,2.4343,-23.8806
5506.4681,2.2243,-23.0556,2.2243,-23.0556
5518.1840,2.0231,-22.0546,2.0231,-22.0546
5529.8999,1.8359,-20.8836,1.8359,-20.8836
5541.6158,1.6672,-19.5464,1.6672,-19.5464
5553.3317,1.5221,-18.0637,1.5221,-18.0637
5565.0476,1.4049,-16.4568,1.4049,-16.4568
5576.7635,1.3190,-14.7645,1.3190,-14.7645
5588.4794,1.2670,-13.0173,1.2670,-13.0173
5600.1953,1.2494,-11.2605,1.2494,-11.2605
5611.9112,1.2660,-9.5355,1.2660,-9.5355
5623.6270,1.3142,-7.8809,1.3142,-7.8809
5635.3429,1.3907,-6.3260,1.3907,-6.3260
5647.0588,1.4915,-4.8945,1.4915,-4.8945
5658.7747,1.6121,-3.6095,1.6121,-3.6095
5670.4906,1.7477,-2.4735,1.7477,-2.4735
5682.2065,1.8940,-1.4931,1.8940,-1.4931
5693.9224,2.0470,-0.6640,2.0470,-0.6640
5705.6383,2.2033,0.0196,2.2033,0.0196
5717.3542,2.3598,0.5694,2.3598,0.5694
5729.0701,2.5144,0.9968,2.5144,0.9968
5740.7859,2.6657,1.3121,2.6657,1.3121
5752.5018,2.8115,1.5286,2.8115,1.5286
5764.2177,2.9515,1.6577,2.9515,1.6577
5775.9336,3.0847,1.7111,3.0847,1.7111
5787.6495,3.2109,1.6976,3.2109,1.6976
5799.3654,3.3295,1.6267,3.3295,1.6267
5811.0813,3.4411,1.5094,3.4411,1.5094
5822.7972,3.5454,1.3492,3.5454,1.3492
5834.5131,3.6427,1.1549,3.6427,1.1549
5846.2289,3.7329,0.9324,3.7329,0.9324
5857.9448,3.8169,0.6843,3.8169,0.6843
5869.6607,3.8942,0.4174,3.8942,0.4174
5881.3766,3.9660,0.1346,3.9660,0.1346
5893.0925,4.0318,-0.1598,4.0318,-0.1598
5904.8084,4.0922,-0.4649,4.0922,-0.4649
5916.5243,4.1477,-0.7766,4.1477,-0.7766
5928.2402,4.1985,-1.0955,4.1985,-1.0955
5939.9561,4.2446,-1.4168,4.2446,-1.4168
5951.6720,4.2864,-1.7408,4.2864,-1.7408
5963.3878,4.3244,-2.0644,4.3244,-2.0644
5975.1037,4.3588,-2.3894,4.3588,-2.3894
5986.8196,4.3894,-2.7123,4.3894,-2.7123
5998.5355,4.4169,-3.0318,4.4169,-3.0318
6010.2514,4.4413,-3.3508,4.4413,-3.3508
6021.9673,4.4628,-3.6654,4.4628,-3.6654
6033.6832,4.4815,-3.9754,4.4815,-3.9754
6045.3991,4.4977,-4.2806,4.4977,-4.2806
6057.1150,4.5116,-4.5844,4.5116,-4.5844
6068.8309,4.5234,-4.8813,4.5234,-4.8813
6080.5467,4.5328,-5.1727,4.5328,-5.1727
6092.2626,4.5403,-5.4624,4.5403,-5.4624
6103.9785,4.5456,-5.7436,4.5456,-5.7436
6115.6944,4.5496,-6.0213,4.5496,-6.0213
6127.4103,4.5518,-6.2916,4.5518,-6.2916
6139.1262,4.5525,-6.5583,4.5525,-6.5583
6150.8421,4.5517,-6.8176,4.5517,-6.8176
6162.5580,4.5496,-7.0721,4.5496,-7.0721
6174.2739,4.5458,-7.3223,4.5458,-7.3223
6185.9897,4.5411,-7.5637,4.5411,-7.5637
6197.7056,4.5353,-7.8021,4.5353,-7.8021
6209.4215,4.5285,-8.0344,4.5285,-8.0344
6221.1374,4.5204,-8.2617,4.5204,-8.2617
6232.8533,4.5116,-8.4837,4.5116,-8.4837
6244.5692,4.5017,-8.6991,4.5017,-8.6991
6256.2851,4.4912,-8.9098,4.4912,-8.9098
6268.0010,4.4795,-9.1166,4.4795,-9.1166
6279.7169,4.4673,-9.3171,4.4673,-9.3171
6291.4328,4.4544,-9.5123,4.4544,-9.5123
6303.1486,4.4408,-9.7027,4.4408,-9.7027
6314.8645,4.4266,-9.8891,4.4266,-9.8891
6326.5804,4.4117,-10.0702,4.4117,-10.0702
6338.2963,4.3962,-10.2453,4.3962,-10.2453
6350.0122,4.3801,-10.4165,4.3801,-10.4165
6361.7281,4.3638,-10.5829,4.3638,-10.5829
6373.4440,4.3468,-10.7462,4.3468,-10.7462
6385.1599,4.3295,-10.9049,4.3295,-10.9049
6396.8758,4.3115,-11.0575,4.3115,-11.0575
6408.5917,4.2933,-11.2068,4.2933,-11.2068
6420.3075,4.2748,-11.3503,4.2748,-11.3503
6432.0234,4.2556,-11.4918,4.2556,-11.4918
6443.7393,4.2364,-11.6288,4.2364,-11.6288
6455.4552,4.2166,-11.7620,4.2166,-11.7620
6467.1711,4.1969,-11.8910,4.1969,-11.8910
6478.8870,4.1765,-12.0149,4.1765,-12.0149
6490.6029,4.1560,-12.1358,4.1560,-12.1358
6502.3188,4.1352,-12.2528,4.1352,-12.2528
6514.0347,4.1141,-12.3658,4.1141,-12.3658
6525.7505,4.0930,-12.4776,4.0930,-12.4776
6537.4664,4.0715,-12.5821,4.0715,-12.5821
6549.1823,4.0500,-12.6851,4.0500,-12.6851
6560.8982,4.0278,-12.7831,4.0278,-12.7831
6572.6141,4.0059,-12.8787,4.0059,-12.8787
6584.3300,3.9838,-12.9720,3.9838,-12.9720
6596.0459,3.9615,-13.0608,3.9615,-13.0608
6607.7618,3.9389,-13.1471,3.9389,-13.1471
6619.4777,3.9162,-13.2287,3.9162,-13.2287
6631.1936,3.8935,-13.3100,3.8935,-13.3100
6642.9094,3.8705,-13.3848,3.8705,-13.3848
6654.6253,3.8473,-13.4565,3.8473,-13.4565
6666.3412,3.8242,-13.5281,3.8242,-13.5281
6678.0571,3.8011,-13.5939,3.8011,-13.5939
6689.7730,3.7776,-13.6566,3.7776,-13.6566
6701.4889,3.7541,-13.7181,3.7541,-13.7181
6713.2048,3.7305,-13.7750,3.7305,-13.7750
6724.9207,3.7070,-13.8314,3.7070,-13.8314
6736.6366,3.6832,-13.8823,3.6832,-13.8823
6748.3525,3.6593,-13.9311,3.6593,-13.9311
6760.0683,3.6357,-13.9770,3.6357,-13.9770
6771.7842,3.6118,-14.0189,3.6118,-14.0189
6783.5001,3.5878,-14.0605,3.5878,-14.0605
6795.2160,3.5640,-14.0974,3.5640,-14.0974
6806.9319,3.5399,-14.1325,3.5399,-14.1325
6818.6478,3.5159,-14.1636,3.5159,-14.1636
6830.3637,3.4919,-14.1928,3.4919,-14.1928
6842.0796,3.4677,-14.2203,3.4677,-14.2203
6853.7955,3.4438,-14.2444,3.4438,-14.2444
6865.5113,3.4194,-14.2656,3.4194,-14.2656
6877.2272,3.3956,-14.2833,3.3956,-14.2833
6888.9431,3.3712,-14.2984,3.3712,-14.2984
6900.6590,3.3475,-14.3111,3.3475,-14.3111
6912.3749,3.3231,-14.3225,3.3231,-14.3225
6924.0908,3.2991,-14.3297,3.2991,-14.3297
6935.8067,3.2750,-14.3352,3.2750,-14.3352
6947.5226,3.2508,-14.3382,3.2508,-14.3382
6959.2385,3.2269,-14.3374,3.2269,-14.3374
6970.9544,3.2027,-14.3343,3.2027,-14.3343
6982.6702,3.1787,-14.3298,3.1787,-14.3298
6994.3861,3.1550,-14.3224,3.1550,-14.3224
7006.1020,3.1311,-14.3117,3.1311,-14.3117
7017.8179,3.1071,-14.3001,3.1071,-14.3001
7029.5338,3.0834,-14.2837,3.0834,-14.2837
7041.2497,3.0596,-14.2660,3.0596,-14.2660
7052.9656,3.0357,-14.2456,3.0357,-14.2456
7064.6815,3.0123,-14.2225,3.0123,-14.2225
7076.3974,2.9889,-14.1972,2.9889,-14.1972
7088.1133,2.9654,-14.1715,2.9654,-14.1715
7099.8291,2.9418,-14.1408,2.9418,-14.1408
7111.5450,2.9187,-14.1092,2.9187,-14.1092
7123.2609,2.8954,-14.0740,2.8954,-14.0740
7134.9768,2.8721,-14.0373,2.8721,-14.0373
7146.6927,2.8489,-13.9971,2.8489,-13.9971
7158.4086,2.8261,-13.9544,2.8261,-13.9544
7170.1245,2.8031,-13.9097,2.8031,-13.9097
7181.8404,2.7803,-13.8640,2.7803,-13.8640
7193.5563,2.7577,-13.8143,2.7577,-13.8143
7205.2722,2.7350,-13.7617,2.7350,-13.7617
7216.9880,2.7123,-13.7086,2.7123,-13.7086
7228.7039,2.6900,-13.6515,2.6900,-13.6515
7240.4198,2.6679,-13.5921,2.6679,-13.5921
7252.1357,2.6455,-13.5307,2.6455,-13.5307
7263.8516,2.6233,-13.4679,2.6233,-13.4679
7275.5675,2.6012,-13.4006,2.6012,-13.4006
7287.2834,2.5797,-13.3324,2.5797,-13.3324
7298.9993,2.5580,-13.2612,2.5580,-13.2612
7310.7152,2.5362,-13.1865,2.5362,-13.1865
7322.4310,2.5148,-13.1105,2.5148,-13.1105
7334.1469,2.4934,-13.0311,2.4934,-13.0311
7345.8628,2.4723,-12.9510,2.4723,-12.9510
7357.5787,2.4511,-12.8654,2.4511,-12.8654
7369.2946,2.4301,-12.7797,2.4301,-12.7797
7381.0105,2.4091,-12.6902,2.4091,-12.6902
7392.7264,2.3885,-12.5985,2.3885,-12.5985
7404.4423,2.3679,-12.5032,2.3679,-12.5032
7416.1582,2.3475,-12.4057,2.3475,-12.4057
7427.8741,2.3273,-12.3057,2.3273,-12.3057
7439.5899,2.3070,-12.2017,2.3070,-12.2017
7451.3058,2.2872,-12.0945,2.2872,-12.0945
7463.0217,2.2673,-11.9851,2.2673,-11.9851
7474.7376,2.2480,-11.8709,2.2480,-11.8709
7486.4535,2.2286,-11.7561,2.2286,-11.7561
7498.1694,2.2094,-11.6362,2.2094,-11.6362
7509.8853,2.1904,-11.5140,2.1904,-11.5140
7521.6012,2.1717,-11.3869,2.1717,-11.3869
7533.3171,2.1532,-11.2590,2.1532,-11.2590
7545.0330,2.1350,-11.1243,2.1350,-11.1243
7556.7488,2.1170,-10.9879,2.1170,-10.9879
7568.4647,2.0992,-10.8470,2.0992,-10.8470
7580.1806,2.0820,-10.7024,2.0820,-10.7024
7591.8965,2.0647,-10.5547,2.0647,-10.5547
7603.6124,2.0480,-10.4016,2.0480,-10.4016
7615.3283,2.0317,-10.2461,2.0317,-10.2461
7627.0442,2.0159,-10.0853,2.0159,-10.0853
7638.7601,2.0001,-9.9199,2.0001,-9.9199
7650.4760,1.9849,-9.7505,1.9849,-9.7505
7662.1918,1.9702,-9.5758,1.9702,-9.5758
7673.9077,1.9562,-9.3984,1.9562,-9.3984
7685.6236,1.9423,-9.2152,1.9423,-9.2152
7697.3395,1.9296,-9.0267,1.9296,-9.0267
7709.0554,1.9171,-8.8347,1.9171,-8.8347
7720.7713,1.9052,-8.6380,1.9052,-8.6380
7732.4872,1.8941,-8.4349,1.8941,-8.4349
7744.2031,1.8838,-8.2269,1.8838,-8.2269
7755.9190,1.8742,-8.0152,1.8742,-8.0152
7767.6349,1.8654,-7.7993,1.8654,-7.7993
7779.3507,1.8574,-7.5769,1.8574,-7.5769
7791.0666,1.8505,-7.3495,1.8505,-7.3495
7802.7825,1.8446,-7.1178,1.8446,-7.1178
7814.4984,1.8398,-6.8818,1.8398,-6.8818
7826.2143,1.8359,-6.6399,1.8359,-6.6399
7837.9302,1.8333,-6.3947,1.8333,-6.3947
7849.6461,1.8319,-6.1420,1.8319,-6.1420
7861.3620,1.8319,-5.8863,1.8319,-5.8863
7873.0779,1.8334,-5.6253,1.8334,-5.6253
7884.7938,1.8361,-5.3601,1.8361,-5.3601
7896.5096,1.8407,-5.0909,1.8407,-5.0909
7908.2255,1.8466,-4.8185,1.8466,-4.8185
7919.9414,1.8544,-4.5423,1.8544,-4.5423
7931.6573,1.8641,-4.2622,1.8641,-4.2622
7943.3732,1.8757,-3.9804,1.8757,-3.9804
7955.0891,1.8894,-3.6949,1.8894,-3.6949
7966.8050,1.9047,-3.4073,1.9047,-3.4073
7978.5209,1.9229,-3.1185,1.9229,-3.1185
7990.2368,1.9430,-2.8269,1.9430,-2.8269
8001.9526,1.9655,-2.5361,1.9655,-2.5361
8013.6685,1.9908,-2.2469,1.9908,-2.2469
8025.3844,2.0187,-1.9586,2.0187,-1.9586
8037.1003,2.0492,-1.6737,2.0492,-1.6737
8048.8162,2.0828,-1.3904,2.0828,-1.3904
8060.5321,2.1193,-1.1129,2.1193,-1.1129
8072.2480,2.1588,-0.8418,2.1588,-0.8418
8083.9639,2.2014,-0.5770,2.2014,-0.5770
8095.6798,2.2471,-0.3236,2.2471,-0.3236
8107.3957,2.2961,-0.0807,2.2961,-0.0807
8119.1115,2.3483,0.1512,2.3483,0.1512
8130.8274,2.4037,0.3670,2.4037,0.3670
8142.5433,2.4622,0.5655,2.4622,0.5655
8154.2592,2.5240,0.7440,2.5240,0.7440
8165.9751,2.5885,0.9025,2.5885,0.9025
8177.6910,2.6562,1.0349,2.6562,1.0349
8189.4069,2.7263,1.1415,2.7263,1.1415
8201.1228,2.7988,1.2211,2.7988,1.2211
8212.8387,2.8730,1.2681,2.8730,1.2681
8224.5546,2.9494,1.2851,2.9494,1.2851
8236.2704,3.0267,1.2659,3.0267,1.2659
8247.9863,3.1048,1.2126,3.1048,1.2126
8259.7022,3.1834,1.1240,3.1834,1.1240
8271.4181,3.2618,0.9972,3.2618,0.9972
8283.1340,3.3396,0.8334,3.3396,0.8334
8294.8499,3.4159,0.6342,3.4159,0.6342
8306.5658,3.4907,0.3974,3.4907,0.3974
8318.2817,3.5635,0.1265,3.5635,0.1265
8329.9976,3.6336,-0.1758,3.6336,-0.1758
8341.7134,3.7004,-0.5121,3.7004,-0.5121
8353.4293,3.7639,-0.8751,3.7639,-0.8751
8365.1452,3.8240,-1.2640,3.8240,-1.2640
8376.8611,3.8800,-1.6785,3.8800,-1.6785
8388.5770,3.9319,-2.1137,3.9319,-2.1137
8400.2929,3.9794,-2.5687,3.9794,-2.5687
8412.0088,4.0232,-3.0379,4.0232,-3.0379
8423.7247,4.0621,-3.5211,4.0621,-3.5211
8435.4406,4.0971,-4.0165,4.0971,-4.0165
8447.1565,4.1277,-4.5218,4.1277,-4.5218
8458.8723,4.1542,-5.0351,4.1542,-5.0351
8470.5882,4.1769,-5.5533,4.1769,-5.5533
8482.3041,4.1953,-6.0797,4.1953,-6.0797
8494.0200,4.2101,-6.6075,4.2101,-6.6075
8505.7359,4.2209,-7.1408,4.2209,-7.1408
8517.4518,4.2283,-7.6762,4.2283,-7.6762
8529.1677,4.2320,-8.2138,4.2320,-8.2138
8540.8836,4.2324,-8.7536,4.2324,-8.7536
8552.5995,4.2289,-9.2971,4.2289,-9.2971
8564.3154,4.2219,-9.8397,4.2219,-9.8397
8576.0312,4.2116,-10.3863,4.2116,-10.3863
8587.7471,4.1973,-10.9349,4.1973,-10.9349
8599.4630,4.1793,-11.4836,4.1793,-11.4836
8611.1789,4.1574,-12.0351,4.1574,-12.0351
8622.8948,4.1313,-12.5862,4.1313,-12.5862
8634.6107,4.1009,-13.1381,4.1009,-13.1381
8646.3266,4.0660,-13.6905,4.0660,-13.6905
8658.0425,4.0260,-14.2386,4.0260,-14.2386
8669.7584,3.9811,-14.7844,3.9811,-14.7844
8681.4742,3.9309,-15.3240,3.9309,-15.3240
8693.1901,3.8746,-15.8544,3.8746,-15.8544
8704.9060,3.8124,-16.3759,3.8124,-16.3759
8716.6219,3.7441,-16.8792,3.7441,-16.8792
8728.3378,3.6693,-17.3636,3.6693,-17.3636
8740.0537,3.5878,-17.8236,3.5878,-17.8236
8751.7696,3.4996,-18.2535,3.4996,-18.2535
8763.4855,3.4049,-18.6449,3.4049,-18.6449
8775.2014,3.3039,-18.9934,3.3039,-18.9934
8786.9173,3.1970,-19.2898,3.1970,-19.2898
8798.6331,3.0850,-19.5293,3.0850,-19.5293
8810.3490,2.9687,-19.7007,2.9687,-19.7007
8822.0649,2.8496,-19.8013,2.8496,-19.8013
8833.7808,2.7287,-19.8246,2.7287,-19.8246
8845.4967,2.6079,-19.7674,2.6079,-19.7674
8857.2126,2.4893,-19.6257,2.4893,-19.6257
8868.9285,2.3747,-19.4026,2.3747,-19.4026
8880.6444,2.2660,-19.1043,2.2660,-19.1043
8892.3603,2.1652,-18.7324,2.1652,-18.7324
8904.0762,2.0741,-18.2995,2.0741,-18.2995
8915.7920,1.9940,-17.8170,1.9940,-17.8170
8927.5079,1.9257,-17.2984,1.9257,-17.2984
8939.2238,1.8694,-16.7570,1.8694,-16.7570
8950.9397,1.8259,-16.2087,1.8259,-16.2087
8962.6556,1.7939,-15.6634,1.7939,-15.6634
8974.3715,1.7730,-15.1371,1.7730,-15.1371
8986.0874,1.7618,-14.6350,1.7618,-14.6350
8997.8033,1.7593,-14.1686,1.7593,-14.1686
9009.5192,1.7638,-13.7394,1.7638,-13.7394
9021.2351,1.7742,-13.3536,1.7742,-13.3536
9032.9509,1.7893,-13.0101,1.7893,-13.0101
9044.6668,1.8075,-12.7102,1.8075,-12.7102
9056.3827,1.8279,-12.4506,1.8279,-12.4506
9068.0986,1.8498,-12.2320,1.8498,-12.2320
9079.8145,1.8722,-12.0499,1.8722,-12.0499
9091.5304,1.8948,-11.9028,1.8948,-11.9028
9103.2463,1.9170,-11.7838,1.9170,-11.7838
9114.9622,1.9383,-11.6947,1.9383,-11.6947
9126.6781,1.9586,-11.6288,1.9586,-11.6288
9138.3939,1.9774,-11.5859,1.9774,-11.5859
9150.1098,1.9953,-11.5629,1.9953,-11.5629
9161.8257,2.0111,-11.5560,2.0111,-11.5560
9173.5416,2.0259,-11.5658,2.0259,-11.5658
9185.2575,2.0389,-11.5889,2.0389,-11.5889
9196.9734,2.0505,-11.6227,2.0505,-11.6227
9208.6893,2.0604,-11.6685,2.0604,-11.6685
9220.4052,2.0690,-11.7239,2.0690,-11.7239
9232.1211,2.0760,-11.7862,2.0760,-11.7862
9243.8370,2.0816,-11.8569,2.0816,-11.8569
9255.5528,2.0858,-11.9335,2.0858,-11.9335
9267.2687,2.0888,-12.0156,2.0888,-12.0156
9278.9846,2.0903,-12.1055,2.0903,-12.1055
9290.7005,2.0905,-12.1966,2.0905,-12.1966
9302.4164,2.0894,-12.2939,2.0894,-12.2939
9314.1323,2.0871,-12.3932,2.0871,-12.3932
9325.8482,2.0841,-12.4972,2.0841,-12.4972
9337.5641,2.0794,-12.6023,2.0794,-12.6023
9349.2800,2.0738,-12.7118,2.0738,-12.7118
9360.9959,2.0668,-12.8228,2.0668,-12.8228
9372.7117,2.0588,-12.9351,2.0588,-12.9351
9384.4276,2.0497,-13.0507,2.0497,-13.0507
9396.1435,2.0396,-13.1665,2.0396,-13.1665
9407.8594,2.0286,-13.2834,2.0286,-13.2834
9419.5753,2.0165,-13.4009,2.0165,-13.4009
9431.2912,2.0034,-13.5202,2.0034,-13.5202
9443.0071,1.9891,-13.6401,1.9891,-13.6401
9454.7230,1.9742,-13.7605,1.9742,-13.7605
9466.4389,1.9579,-13.8795,1.9579,-13.8795
9478.1547,1.9407,-13.9996,1.9407,-13.9996
9489.8706,1.9226,-14.1207,1.9226,-14.1207
9501.5865,1.9036,-14.2406,1.9036,-14.2406
9513.3024,1.8835,-14.3590,1.8835,-14.3590
9525.0183,1.8626,-14.4779,1.8626,-14.4779
9536.7342,1.8405,-14.5974,1.8405,-14.5974
9548.4501,1.8174,-14.7124,1.8174,-14.7124
9560.1660,1.7938,-14.8276,1.7938,-14.8276
9571.8819,1.7691,-14.9425,1.7691,-14.9425
9583.5978,1.7434,-15.0571,1.7434,-15.0571
9595.3136,1.7166,-15.1670,1.7166,-15.1670
9607.0295,1.6890,-15.2772,1.6890,-15.2772
9618.7454,1.6603,-15.3853,1.6603,-15.3853
9630.4613,1.6310,-15.4899,1.6310,-15.4899
9642.1772,1.6004,-15.5932,1.6004,-15.5932
9653.8931,1.5693,-15.6940,1.5693,-15.6940
9665.6090,1.5370,-15.7911,1.5370,-15.7911
9677.3249,1.5037,-15.8863,1.5037,-15.8863
9689.0408,1.4696,-15.9786,1.4696,-15.9786
9700.7567,1.4348,-16.0660,1.4348,-16.0660
9712.4725,1.3990,-16.1510,1.3990,-16.1510
9724.1884,1.3620,-16.2331,1.3620,-16.2331
9735.9043,1.3246,-16.3102,1.3246,-16.3102
9747.6202,1.2863,-16.3835,1.2863,-16.3835
9759.3361,1.2470,-16.4530,1.2470,-16.4530
9771.0520,1.2067,-16.5176,1.2067,-16.5176
9782.7679,1.1654,-16.5769,1.1654,-16.5769
9794.4838,1.1238,-16.6308,1.1238,-16.6308
9806.1997,1.0811,-16.6810,1.0811,-16.6810
9817.9155,1.0382,-16.7260,1.0382,-16.7260
9829.6314,0.9939,-16.7644,0.9939,-16.7644
9841.3473,0.9490,-16.7966,0.9490,-16.7966
9853.0632,0.9034,-16.8254,0.9034,-16.8254
9864.7791,0.8570,-16.8454,0.8570,-16.8454
9876.4950,0.8100,-16.8611,0.8100,-16.8611
9888.2109,0.7625,-16.8684,0.7625,-16.8684
9899.9268,0.7141,-16.8703,0.7141,-16.8703
9911.6427,0.6652,-16.8665,0.6652,-16.8665
9923.3586,0.6161,-16.8542,0.6161,-16.8542
9935.0744,0.5661,-16.8342,0.5661,-16.8342
9946.7903,0.5157,-16.8088,0.5157,-16.8088
9958.5062,0.4651,-16.7767,0.4651,-16.7767
9970.2221,0.4139,-16.7360,0.4139,-16.7360
9981.9380,0.3621,-16.6880,0.3621,-16.6880
9993.6539,0.3102,-16.6319,0.3102,-16.6319
10005.3698,0.2581,-16.5703,0.2581,-16.5703
10017.0857,0.2051,-16.5005,0.2051,-16.5005
10028.8016,0.1526,-16.4222,0.1526,-16.4222
10040.5175,0.0994,-16.3377,0.0994,-16.3377
10052.2333,0.0460,-16.2422,0.0460,-16.2422
10063.9492,-0.0073,-16.1429,-0.0073,-16.1429
10075.6651,-0.0607,-16.0339,-0.0607,-16.0339
10087.3810,-0.1143,-15.9196,-0.1143,-15.9196
10099.0969,-0.1682,-15.7997,-0.1682,-15.7997
10110.8128,-0.2219,-15.6700,-0.2219,-15.6700
10122.5287,-0.2757,-15.5334,-0.2757,-15.5334
10134.2446,-0.3297,-15.3910,-0.3297,-15.3910
10145.9605,-0.3836,-15.2443,-0.3836,-15.2443
10157.6763,-0.4376,-15.0877,-0.4376,-15.0877
10169.3922,-0.4920,-14.9278,-0.4920,-14.9278
10181.1081,-0.5456,-14.7608,-0.5456,-14.7608
10192.8240,-0.6003,-14.5879,-0.6003,-14.5879
10204.5399,-0.6546,-14.4110,-0.6546,-14.4110
10216.2558,-0.7092,-14.2281,-0.7092,-14.2281
10227.9717,-0.7644,-14.0378,-0.7644,-14.0378
10239.6876,-0.8197,-13.8441,-0.8197,-13.8441
10251.4035,-0.8752,-13.6442,-0.8752,-13.6442
10263.1194,-0.9314,-13.4392,-0.9314,-13.4392
10274.8352,-0.9885,-13.2301,-0.9885,-13.2301
10286.5511,-1.0461,-13.0117,-1.0461,-13.0117
10298.2670,-1.1044,-12.7880,-1.1044,-12.7880
10309.9829,-1.1640,-12.5589,-1.1640,-12.5589
10321.6988,-1.2245,-12.3205,-1.2245,-12.3205
10333.4147,-1.2865,-12.0737,-1.2865,-12.0737
10345.1306,-1.3498,-11.8165,-1.3498,-11.8165
10356.8465,-1.4146,-11.5479,-1.4146,-11.5479
10368.5624,-1.4813,-11.2661,-1.4813,-11.2661
10380.2783,-1.5495,-10.9686,-1.5495,-10.9686
10391.9941,-1.6196,-10.6544,-1.6196,-10.6544
10403.7100,-1.6915,-10.3207,-1.6915,-10.3207
10415.4259,-1.7657,-9.9601,-1.7657,-9.9601
10427.1418,-1.8411,-9.5738,-1.8411,-9.5738
10438.8577,-1.9184,-9.1609,-1.9184,-9.1609
10450.5736,-1.9972,-8.7098,-1.9972,-8.7098
10462.2895,-2.0769,-8.2244,-2.0769,-8.2244
10474.0054,-2.1574,-7.6941,-2.1574,-7.6941
10485.7213,-2.2376,-7.1178,-2.2376,-7.1178
10497.4371,-2.3173,-6.4919,-2.3173,-6.4919
10509.1530,-2.3954,-5.8164,-2.3954,-5.8164
10520.8689,-2.4704,-5.0830,-2.4704,-5.0830
10532.5848,-2.5419,-4.2954,-2.5419,-4.2954
10544.3007,-2.6082,-3.4517,-2.6082,-3.4517
10556.0166,-2.6678,-2.5529,-2.6678,-2.5529
10567.7325,-2.7200,-1.6074,-2.7200,-1.6074
10579.4484,-2.7624,-0.6120,-2.7624,-0.6120
10591.1643,-2.7948,0.4207,-2.7948,0.4207
10602.8802,-2.8158,1.4835,-2.8158,1.4835
10614.5960,-2.8247,2.5646,-2.8247,2.5646
10626.3119,-2.8210,3.6578,-2.8210,3.6578
10638.0278,-2.8044,4.7435,-2.8044,4.7435
10649.7437,-2.7754,5.8182,-2.7754,5.8182
10661.4596,-2.7345,6.8669,-2.7345,6.8669
10673.1755,-2.6820,7.8808,-2.6820,7.8808
10684.8914,-2.6196,8.8530,-2.6196,8.8530
10696.6073,-2.5478,9.7718,-2.5478,9.7718
10708.3232,-2.4687,10.6357,-2.4687,10.6357
10720.0391,-2.3828,11.4437,-2.3828,11.4437
10731.7549,-2.2917,12.1894,-2.2917,12.1894
10743.4708,-2.1969,12.8752,-2.1969,12.8752
10755.1867,-2.0993,13.5026,-2.0993,13.5026
10766.9026,-2.0001,14.0679,-2.0001,14.0679
10778.6185,-1.9001,14.5809,-1.9001,14.5809
10790.3344,-1.8003,15.0390,-1.8003,15.0390
10802.0503,-1.7011,15.4494,-1.7011,15.4494
10813.7662,-1.6032,15.8149,-1.6032,15.8149
10825.4821,-1.5068,16.1346,-1.5068,16.1346
10837.1979,-1.4126,16.4197,-1.4126,16.4197
10848.9138,-1.3208,16.6673,-1.3208,16.6673
10860.6297,-1.2313,16.8836,-1.2313,16.8836
10872.3456,-1.1446,17.0744,-1.1446,17.0744
10884.0615,-1.0605,17.2350,-1.0605,17.2350
10895.7774,-0.9789,17.3759,-0.9789,17.3759
10907.4933,-0.9006,17.4938,-0.9006,17.4938
10919.2092,-0.8245,17.5957,-0.8245,17.5957
10930.9251,-0.7514,17.6791,-0.7514,17.6791
10942.6410,-0.6810,17.7492,-0.6810,17.7492
10954.3568,-0.6128,17.8061,-0.6128,17.8061
10966.0727,-0.5471,17.8536,-0.5471,17.8536
10977.7886,-0.4841,17.8859,-0.4841,17.8859
10989.5045,-0.4236,17.9139,-0.4236,17.9139
11001.2204,-0.3647,17.9306,-0.3647,17.9306
11012.9363,-0.3085,17.9438,-0.3085,17.9438
11024.6522,-0.2541,17.9501,-0.2541,17.9501
11036.3681,-0.2013,17.9501,-0.2013,17.9501
11048.0840,-0.1512,17.9462,-0.1512,17.9462
11059.7999,-0.1024,17.9378,-0.1024,17.9378
11071.5157,-0.0550,17.9287,-0.0550,17.9287
11083.2316,-0.0098,17.9126,-0.0098,17.9126
11094.9475,0.0340,17.8966,0.0340,17.8966
11106.6634,0.0762,17.8780,0.0762,17.8780
11118.3793,0.1171,17.8565,0.1171,17.8565
11130.0952,0.1566,17.8344,0.1566,17.8344
11141.8111,0.1947,17.8129,0.1947,17.8129
11153.5270,0.2318,17.7882,0.2318,17.7882
11165.2429,0.2672,17.7626,0.2672,17.7626
11176.9588,0.3021,17.7380,0.3021,17.7380
11188.6746,0.3357,17.7109,0.3357,17.7109
11200.3905,0.3682,17.6859,0.3682,17.6859
11212.1064,0.3997,17.6594,0.3997,17.6594
11223.8223,0.4303,17.6350,0.4303,17.6350
11235.5382,0.4594,17.6096,0.4594,17.6096
11247.2541,0.4884,17.5843,0.4884,17.5843
11258.9700,0.5164,17.5604,0.5164,17.5604
11270.6859,0.5434,17.5366,0.5434,17.5366
11282.4018,0.5698,17.5125,0.5698,17.5125
11294.1176,0.5955,17.4888,0.5955,17.4888
11305.8335,0.6204,17.4672,0.6204,17.4672
11317.5494,0.6447,17.4455,0.6447,17.4455
11329.2653,0.6683,17.4233,0.6683,17.4233
11340.9812,0.6913,17.4050,0.6913,17.4050
11352.6971,0.7139,17.3859,0.7139,17.3859
11364.4130,0.7358,17.3681,0.7358,17.3681
11376.1289,0.7571,17.3514,0.7571,17.3514
11387.8448,0.7780,17.3349,0.7780,17.3349
11399.5607,0.7983,17.3207,0.7983,17.3207
11411.2765,0.8182,17.3053,0.8182,17.3053
11422.9924,0.8378,17.2925,0.8378,17.2925
11434.7083,0.8565,17.2794,0.8565,17.2794
11446.4242,0.8753,17.2694,0.8753,17.2694
11458.1401,0.8936,17.2580,0.8936,17.2580
11469.8560,0.9118,17.2482,0.9118,17.2482
11481.5719,0.9291,17.2409,0.9291,17.2409
11493.2878,0.9461,17.2341,0.9461,17.2341
11505.0037,0.9632,17.2283,0.9632,17.2283
11516.7196,0.9797,17.2227,0.9797,17.2227
11528.4354,0.9959,17.2177,0.9959,17.2177
11540.1513,1.0119,17.2139,1.0119,17.2139
11551.8672,1.0276,17.2118,1.0276,17.2118
11563.5831,1.0431,17.2112,1.0431,17.2112
11575.2990,1.0584,17.2104,1.0584,17.2104
11587.0149,1.0735,17.2111,1.0735,17.2111
11598.7308,1.0882,17.2114,1.0882,17.2114
11610.4467,1.1027,17.2135,1.1027,17.2135
11622.1626,1.1173,17.2172,1.1173,17.2172
11633.8784,1.1314,17.2204,1.1314,17.2204
11645.5943,1.1452,17.2254,1.1452,17.2254
11657.3102,1.1589,17.2294,1.1589,17.2294
11669.0261,1.1729,17.2357,1.1729,17.2357
11680.7420,1.1861,17.2424,1.1861,17.2424
11692.4579,1.1998,17.2491,1.1998,17.2491
11704.1738,1.2127,17.2579,1.2127,17.2579
11715.8897,1.2256,17.2682,1.2256,17.2682
11727.6056,1.2387,17.2755,1.2387,17.2755
11739.3215,1.2517,17.2880,1.2517,17.2880
11751.0373,1.2643,17.2978,1.2643,17.2978
11762.7532,1.2768,17.3105,1.2768,17.3105
11774.4691,1.2891,17.3224,1.2891,17.3224
11786.1850,1.3017,17.3331,1.3017,17.3331
11797.9009,1.3139,17.3471,1.3139,17.3471
11809.6168,1.3260,17.3606,1.3260,17.3606
11821.3327,1.3382,17.3764,1.3382,17.3764
11833.0486,1.3500,17.3899,1.3500,17.3899
11844.7645,1.3619,17.4045,1.3619,17.4045
11856.4804,1.3737,17.4210,1.3737,17.4210
11868.1962,1.3855,17.4361,1.3855,17.4361
11879.9121,1.3971,17.4521,1.3971,17.4521
11891.6280,1.4089,17.4703,1.4089,17.4703
11903.3439,1.4201,17.4881,1.4201,17.4881
11915.0598,1.4317,17.5049,1.4317,17.5049
11926.7757,1.4431,17.5248,1.4431,17.5248
11938.4916,1.4547,17.5422,1.4547,17.5422
11950.2075,1.4658,17.5605,1.4658,17.5605
11961.9234,1.4768,17.5803,1.4768,17.5803
11973.6392,1.4883,17.6014,1.4883,17.6014
11985.3551,1.4993,17.6194,1.4993,17.6194
11997.0710,1.5102,17.6390,1.5102,17.6390
12008.7869,1.5213,17.6601,1.5213,17.6601
12020.5028,1.5323,17.6817,1.5323,17.6817
12032.2187,1.5433,17.7030,1.5433,17.7030
12043.9346,1.5543,17.7227,1.5543,17.7227
12055.6505,1.5650,17.7461,1.5650,17.7461
12067.3664,1.5759,17.7663,1.5759,17.7663
12079.0823,1.5866,17.7890,1.5866,17.7890
12090.7981,1.5972,17.8113,1.5972,17.8113
12102.5140,1.6081,17.8324,1.6081,17.8324
12114.2299,1.6187,17.8565,1.6187,17.8565
12125.9458,1.6292,17.8794,1.6292,17.8794
12137.6617,1.6400,17.9014,1.6400,17.9014
12149.3776,1.6505,17.9249,1.6505,17.9249
12161.0935,1.6610,17.9480,1.6610,17.9480
12172.8094,1.6715,17.9729,1.6715,17.9729
12184.5253,1.6820,17.9958,1.6820,17.9958
12196.2412,1.6925,18.0184,1.6925,18.0184
12207.9570,1.7030,18.0441,1.7030,18.0441
12219.6729,1.7130,18.0670,1.7130,18.0670
12231.3888,1.7236,18.0928,1.7236,18.0928
12243.1047,1.7338,18.1172,1.7338,18.1172
12254.8206,1.7442,18.1405,1.7442,18.1405
12266.5365,1.7543,18.1657,1.7543,18.1657
12278.2524,1.7644,18.1912,1.7644,18.1912
12289.9683,1.7751,18.2156,1.7751,18.2156
12301.6842,1.7851,18.2423,1.7851,18.2423
12313.4000,1.7953,18.2660,1.7953,18.2660
12325.1159,1.8054,18.2914,1.8054,18.2914
12336.8318,1.8157,18.3181,1.8157,18.3181
12348.5477,1.8255,18.3431,1.8255,18.3431
12360.2636,1.8357,18.3700,1.8357,18.3700
12371.9795,1.8460,18.3955,1.8460,18.3955
12383.6954,1.8560,18.4219,1.8560,18.4219
12395.4113,1.8658,18.4472,1.8658,18.4472
12407.1272,1.8759,18.4747,1.8759,18.4747
12418.8431,1.8862,18.5009,1.8862,18.5009
12430.5589,1.8962,18.5272,1.8962,18.5272
12442.2748,1.9060,18.5536,1.9060,18.5536
12453.9907,1.9161,18.5817,1.9161,18.5817
12465.7066,1.9261,18.6069,1.9261,18.6069
12477.4225,1.9360,18.6342,1.9360,18.6342
12489.1384,1.9459,18.6631,1.9459,18.6631
12500.8543,1.9559,18.6893,1.9559,18.6893
12512.5702,1.9657,18.7173,1.9657,18.7173
12524.2861,1.9759,18.7444,1.9759,18.7444
12536.0020,1.9856,18.7721,1.9856,18.7721
12547.7178,1.9957,18.8005,1.9957,18.8005
12559.4337,2.0055,18.8282,2.0055,18.8282
12571.1496,2.0153,18.8563,2.0153,18.8563
12582.8655,2.0253,18.8829,2.0253,18.8829
12594.5814,2.0354,18.9120,2.0354,18.9120
12606.2973,2.0451,18.9412,2.0451,18.9412
12618.0132,2.0550,18.9683,2.0550,18.9683
12629.7291,2.0648,18.9970,2.0648,18.9970
12641.4450,2.0749,19.0248,2.0749,19.0248
12653.1608,2.0848,19.0537,2.0848,19.0537
12664.8767,2.0947,19.0815,2.0947,19.0815
12676.5926,2.1046,19.1118,2.1046,19.1118
12688.3085,2.1143,19.1395,2.1143,19.1395
12700.0244,2.1246,19.1694,2.1246,19.1694
12711.7403,2.1344,19.1980,2.1344,19.1980
12723.4562,2.1444,19.2279,2.1444,19.2279
12735.1721,2.1544,19.2572,2.1544,19.2572
12746.8880,2.1643,19.2864,2.1643,19.2864
12758.6039,2.1742,19.3153,2.1742,19.3153
12770.3197,2.1843,19.3450,2.1843,19.3450
12782.0356,2.1943,19.3757,2.1943,19.3757
12793.7515,2.2042,19.4037,2.2042,19.4037
12805.4674,2.2142,19.4328,2.2142,19.4328
12817.1833,2.2244,19.4631,2.2244,19.4631
12828.8992,2.2345,19.4917,2.2345,19.4917
12840.6151,2.2446,19.5226,2.2446,19.5226
12852.3310,2.2545,19.5533,2.2545,19.5533
12864.0469,2.2647,19.5830,2.2647,19.5830
12875.7628,2.2748,19.6123,2.2748,19.6123
12887.4786,2.2849,19.6434,2.2849,19.6434
12899.1945,2.2950,19.6722,2.2950,19.6722
12910.9104,2.3052,19.7034,2.3052,19.7034
12922.6263,2.3156,19.7326,2.3156,19.7326
12934.3422,2.3258,19.7627,2.3258,19.7627
12946.0581,2.3360,19.7915,2.3360,19.7915
12957.7740,2.3462,19.8222,2.3462,19.8222
12969.4899,2.3565,19.8538,2.3565,19.8538
12981.2058,2.3669,19.8826,2.3669,19.8826
12992.9216,2.3773,19.9120,2.3773,19.9120
13004.6375,2.3876,19.9436,2.3876,19.9436
13016.3534,2.3981,19.9709,2.3981,19.9709
13028.0693,2.4084,20.0031,2.4084,20.0031
13039.7852,2.4189,20.0319,2.4189,20.0319
13051.5011,2.4293,20.0621,2.4293,20.0621
13063.2170,2.4400,20.0917,2.4400,20.0917
13074.9329,2.4506,20.1220,2.4506,20.1220
13086.6488,2.4610,20.1518,2.4610,20.1518
13098.3647,2.4716,20.1812,2.4716,20.1812
13110.0805,2.4823,20.2112,2.4823,20.2112
13121.7964,2.4930,20.2409,2.4930,20.2409
13133.5123,2.5036,20.2708,2.5036,20.2708
13145.2282,2.5143,20.3001,2.5143,20.3001
13156.9441,2.5251,20.3307,2.5251,20.3307
13168.6600,2.5358,20.3589,2.5358,20.3589
13180.3759,2.5468,20.3885,2.5468,20.3885
13192.0918,2.5575,20.4165,2.5575,20.4165
13203.8077,2.5682,20.4466,2.5682,20.4466
13215.5236,2.5792,20.4758,2.5792,20.4758
13227.2394,2.5903,20.5045,2.5903,20.5045
13238.9553,2.6010,20.5335,2.6010,20.5335
13250.6712,2.6121,20.5621,2.6121,20.5621
13262.3871,2.6230,20.5905,2.6230,20.5905
13274.1030,2.6341,20.6189,2.6341,20.6189
13285.8189,2.6451,20.6482,2.6451,20.6482
13297.5348,2.6563,20.6753,2.6563,20.6753
13309.2507,2.6677,20.7037,2.6677,20.7037
13320.9666,2.6789,20.7299,2.6789,20.7299
13332.6825,2.6899,20.7583,2.6899,20.7583
13344.3983,2.7010,20.7859,2.7010,20.7859
13356.1142,2.7125,20.8128,2.7125,20.8128
13367.8301,2.7237,20.8410,2.7237,20.8410
13379.5460,2.7350,20.8679,2.7350,20.8679
13391.2619,2.7465,20.8945,2.7465,20.8945
13402.9778,2.7579,20.9217,2.7579,20.9217
13414.6937,2.7693,20.9480,2.7693,20.9480
13426.4096,2.7809,20.9733,2.7809,20.9733
13438.1255,2.7924,21.0007,2.7924,21.0007
13449.8413,2.8037,21.0272,2.8037,21.0272
13461.5572,2.8154,21.0517,2.8154,21.0517
13473.2731,2.8272,21.0766,2.8272,21.0766
13484.9890,2.8385,21.1017,2.8385,21.1017
13496.7049,2.8502,21.1274,2.8502,21.1274
13508.4208,2.8620,21.1521,2.8620,21.1521
13520.1367,2.8736,21.1762,2.8736,21.1762
13531.8526,2.8854,21.2004,2.8854,21.2004
13543.5685,2.8971,21.2255,2.8971,21.2255
13555.2844,2.9090,21.2484,2.9090,21.2484
13567.0002,2.9207,21.2725,2.9207,21.2725
13578.7161,2.9326,21.2966,2.9326,21.2966
13590.4320,2.9445,21.3194,2.9445,21.3194
13602.1479,2.9563,21.3428,2.9563,21.3428
13613.8638,2.9684,21.3648,2.9684,21.3648
13625.5797,2.9803,21.3882,2.9803,21.3882
13637.2956,2.9924,21.4084,2.9924,21.4084
13649.0115,3.0044,21.4326,3.0044,21.4326
13660.7274,3.0164,21.4545,3.0164,21.4545
13672.4433,3.0284,21.4748,3.0284,21.4748
13684.1591,3.0406,21.4964,3.0406,21.4964
13695.8750,3.0526,21.5163,3.0526,21.5163
13707.5909,3.0648,21.5375,3.0648,21.5375
13719.3068,3.0769,21.5577,3.0769,21.5577
13731.0227,3.0891,21.5786,3.0891,21.5786
13742.7386,3.1014,21.5966,3.1014,21.5966
13754.4545,3.1137,21.6159,3.1137,21.6159
13766.1704,3.1259,21.6348,3.1259,21.6348
13777.8863,3.1380,21.6530,3.1380,21.6530
13789.6021,3.1505,21.6724,3.1505,21.6724
13801.3180,3.1625,21.6899,3.1625,21.6899
13813.0339,3.1751,21.7086,3.1751,21.7086
13824.7498,3.1872,21.7267,3.1872,21.7267
13836.4657,3.1996,21.7430,3.1996,21.7430
13848.1816,3.2118,21.7610,3.2118,21.7610
13859.8975,3.2245,21.7784,3.2245,21.7784
13871.6134,3.2369,21.7932,3.2369,21.7932
13883.3293,3.2493,21.8100,3.2493,21.8100
13895.0452,3.2618,21.8255,3.2618,21.8255
13906.7610,3.2744,21.8403,3.2744,21.8403
13918.4769,3.2867,21.8557,3.2867,21.8557
13930.1928,3.2993,21.8706,3.2993,21.8706
13941.9087,3.3116,21.8849,3.3116,21.8849
13953.6246,3.3243,21.8993,3.3243,21.8993
13965.3405,3.3369,21.9117,3.3369,21.9117
13977.0564,3.3491,21.9251,3.3491,21.9251
13988.7723,3.3619,21.9399,3.3619,21.9399
14000.4882,3.3744,21.9523,3.3744,21.9523
14012.2041,3.3870,21.9647,3.3870,21.9647
14023.9199,3.3997,21.9764,3.3997,21.9764
14035.6358,3.4124,21.9881,3.4124,21.9881
14047.3517,3.4248,21.9996,3.4248,21.9996
14059.0676,3.4374,22.0117,3.4374,22.0117
14070.7835,3.4500,22.0228,3.4500,22.0228
14082.4994,3.4628,22.0333,3.4628,22.0333
14094.2153,3.4753,22.0433,3.4753,22.0433
14105.9312,3.4880,22.0528,3.4880,22.0528
14117.6471,3.5007,22.0628,3.5007,22.0628
14129.3629,3.5134,22.0724,3.5134,22.0724
14141.0788,3.5260,22.0807,3.5260,22.0807
14152.7947,3.5387,22.0898,3.5387,22.0898
14164.5106,3.5514,22.0965,3.5514,22.0965
14176.2265,3.5640,22.1056,3.5640,22.1056
14187.9424,3.5766,22.1147,3.5766,22.1147
14199.6583,3.5893,22.1202,3.5893,22.1202
14211.3742,3.6019,22.1265,3.6019,22.1265
14223.0901,3.6146,22.1352,3.6146,22.1352
14234.8060,3.6274,22.1404,3.6274,22.1404
14246.5218,3.6402,22.1468,3.6402,22.1468
14258.2377,3.6528,22.1535,3.6528,22.1535
14269.9536,3.6656,22.1580,3.6656,22.1580
14281.6695,3.6782,22.1626,3.6782,22.1626
14293.3854,3.6909,22.1680,3.6909,22.1680
14305.1013,3.7036,22.1722,3.7036,22.1722
14316.8172,3.7163,22.1757,3.7163,22.1757
14328.5331,3.7291,22.1797,3.7291,22.1797
14340.2490,3.7416,22.1824,3.7416,22.1824
14351.9649,3.7543,22.1857,3.7543,22.1857
14363.6807,3.7670,22.1888,3.7670,22.1888
14375.3966,3.7798,22.1916,3.7798,22.1916
14387.1125,3.7924,22.1940,3.7924,22.1940
14398.8284,3.8052,22.1945,3.8052,22.1945
14410.5443,3.8177,22.1963,3.8177,22.1963
14422.2602,3.8304,22.1985,3.8304,22.1985
14433.9761,3.8432,22.1990,3.8432,22.1990
14445.6920,3.8557,22.1998,3.8557,22.1998
14457.4079,3.8684,22.2003,3.8684,22.2003
14469.1237,3.8811,22.1998,3.8811,22.1998
14480.8396,3.8935,22.2003,3.8935,22.2003
14492.5555,3.9063,22.1988,3.9063,22.1988
14504.2714,3.9190,22.1975,3.9190,22.1975
14515.9873,3.9314,22.1969,3.9314,22.1969
14527.7032,3.9441,22.1954,3.9441,22.1954
14539.4191,3.9569,22.1936,3.9569,22.1936
14551.1350,3.9693,22.1922,3.9693,22.1922
14562.8509,3.9818,22.1886,3.9818,22.1886
14574.5668,3.9945,22.1865,3.9945,22.1865
14586.2826,4.0069,22.1841,4.0069,22.1841
14597.9985,4.0197,22.1796,4.0197,22.1796
14609.7144,4.0321,22.1774,4.0321,22.1774
14621.4303,4.0446,22.1740,4.0446,22.1740
14633.1462,4.0573,22.1694,4.0573,22.1694
14644.8621,4.0698,22.1646,4.0698,22.1646
14656.5780,4.0822,22.1595,4.0822,22.1595
14668.2939,4.0949,22.1542,4.0949,22.1542
14680.0098,4.1072,22.1500,4.1072,22.1500
14691.7257,4.1195,22.1444,4.1195,22.1444
14703.4415,4.1321,22.1383,4.1321,22.1383
14715.1574,4.1446,22.1323,4.1446,22.1323
14726.8733,4.1570,22.1266,4.1570,22.1266
14738.5892,4.1696,22.1196,4.1696,22.1196
14750.3051,4.1819,22.1141,4.1819,22.1141
14762.0210,4.1942,22.1056,4.1942,22.1056
14773.7369,4.2068,22.0985,4.2068,22.0985
14785.4528,4.2190,22.0907,4.2190,22.0907
14797.1687,4.2316,22.0821,4.2316,22.0821
14808.8845,4.2438,22.0749,4.2438,22.0749
14820.6004,4.2561,22.0660,4.2561,22.0660
14832.3163,4.2685,22.0567,4.2685,22.0567
14844.0322,4.2807,22.0477,4.2807,22.0477
14855.7481,4.2932,22.0381,4.2932,22.0381
14867.4640,4.3054,22.0285,4.3054,22.0285
14879.1799,4.3176,22.0185,4.3176,22.0185
14890.8958,4.3298,22.0091,4.3298,22.0091
14902.6117,4.3421,21.9987,4.3421,21.9987
14914.3276,4.3543,21.9889,4.3543,21.9889
14926.0434,4.3664,21.9785,4.3664,21.9785
14937.7593,4.3788,21.9661,4.3788,21.9661
14949.4752,4.3908,21.9559,4.3908,21.9559
14961.1911,4.4030,21.9444,4.4030,21.9444
14972.9070,4.4151,21.9331,4.4151,21.9331
14984.6229,4.4272,21.9213,4.4272,21.9213
14996.3388,4.4393,21.9079,4.4393,21.9079
15008.0547,4.4515,21.8958,4.4515,21.8958
15019.7706,4.4637,21.8842,4.4637,21.8842
15031.4865,4.4756,21.8717,4.4756,21.8717
15043.2023,4.4877,21.8586,4.4877,21.8586
15054.9182,4.4998,21.8445,4.4998,21.8445
15066.6341,4.5117,21.8306,4.5117,21.8306
15078.3500,4.5238,21.8177,4.5238,21.8177
15090.0659,4.5357,21.8034,4.5357,21.8034
15101.7818,4.5478,21.7905,4.5478,21.7905
15113.4977,4.5597,21.7748,4.5597,21.7748
15125.2136,4.5716,21.7605,4.5716,21.7605
15136.9295,4.5835,21.7460,4.5835,21.7460
15148.6454,4.5955,21.7305,4.5955,21.7305
15160.3612,4.6073,21.7140,4.6073,21.7140
15172.0771,4.6192,21.7001,4.6192,21.7001
15183.7930,4.6312,21.6838,4.6312,21.6838
15195.5089,4.6429,21.6686,4.6429,21.6686
15207.2248,4.6548,21.6519,4.6548,21.6519
15218.9407,4.6664,21.6363,4.6664,21.6363
15230.6566,4.6781,21.6194,4.6781,21.6194
15242.3725,4.6902,21.6031,4.6902,21.6031
15254.0884,4.7018,21.5859,4.7018,21.5859
15265.8042,4.7137,21.5693,4.7137,21.5693
15277.5201,4.7253,21.5509,4.7253,21.5509
15289.2360,4.7370,21.5344,4.7370,21.5344
15300.9519,4.7489,21.5161,4.7489,21.5161
15312.6678,4.7605,21.4989,4.7605,21.4989
15324.3837,4.7721,21.4804,4.7721,21.4804
15336.0996,4.7837,21.4626,4.7837,21.4626
15347.8155,4.7953,21.4432,4.7953,21.4432
15359.5314,4.8071,21.4252,4.8071,21.4252
15371.2473,4.8187,21.4061,4.8187,21.4061
15382.9631,4.8302,21.3881,4.8302,21.3881
15394.6790,4.8418,21.3677,4.8418,21.3677
15406.3949,4.8533,21.3490,4.8533,21.3490
15418.1108,4.8649,21.3283,4.8649,21.3283
15429.8267,4.8762,21.3100,4.8762,21.3100
15441.5426,4.8879,21.2896,4.8879,21.2896
15453.2585,4.8993,21.2696,4.8993,21.2696
15464.9744,4.9108,21.2485,4.9108,21.2485
15476.6903,4.9222,21.2291,4.9222,21.2291
15488.4062,4.9336,21.2074,4.9336,21.2074
15500.1220,4.9450,21.1886,4.9450,21.1886
15511.8379,4.9564,21.1675,4.9564,21.1675
15523.5538,4.9678,21.1460,4.9678,21.1460
15535.2697,4.9791,21.1243,4.9791,21.1243
15546.9856,4.9904,21.1026,4.9904,21.1026
15558.7015,5.0019,21.0815,5.0019,21.0815
15570.4174,5.0131,21.0591,5.0131,21.0591
15582.1333,5.0245,21.0372,5.0245,21.0372
15593.8492,5.0358,21.0154,5.0358,21.0154
15605.5650,5.0470,20.9935,5.0470,20.9935
15617.2809,5.0582,20.9707,5.0582,20.9707
15628.9968,5.0693,20.9482,5.0693,20.9482
15640.7127,5.0806,20.9267,5.0806,20.9267
15652.4286,5.0918,20.9029,5.0918,20.9029
15664.1445,5.1031,20.8790,5.1031,20.8790
15675.8604,5.1141,20.8565,5.1141,20.8565
15687.5763,5.1253,20.8333,5.1253,20.8333
15699.2922,5.1365,20.8099,5.1365,20.8099
15711.0081,5.1476,20.7848,5.1476,20.7848
15722.7239,5.1587,20.7608,5.1587,20.7608
15734.4398,5.1697,20.7378,5.1697,20.7378
15746.1557,5.1808,20.7140,5.1808,20.7140
15757.8716,5.1918,20.6900,5.1918,20.6900
15769.5875,5.2029,20.6661,5.2029,20.6661
15781.3034,5.2141,20.6413,5.2141,20.6413
15793.0193,5.2250,20.6165,5.2250,20.6165
15804.7352,5.2360,20.5923,5.2360,20.5923
15816.4511,5.2468,20.5666,5.2468,20.5666
15828.1670,5.2580,20.5407,5.2580,20.5407
15839.8828,5.2688,20.5157,5.2688,20.5157
15851.5987,5.2798,20.4908,5.2798,20.4908
15863.3146,5.2907,20.4642,5.2907,20.4642
15875.0305,5.3016,20.4392,5.3016,20.4392
15886.7464,5.3125,20.4138,5.3125,20.4138
15898.4623,5.3233,20.3876,5.3233,20.3876
15910.1782,5.3342,20.3617,5.3342,20.3617
15921.8941,5.3450,20.3349,5.3450,20.3349
15933.6100,5.3560,20.3088,5.3560,20.3088
15945.3258,5.3667,20.2818,5.3667,20.2818
15957.0417,5.3776,20.2553,5.3776,20.2553
15968.7576,5.3885,20.2287,5.3885,20.2287
15980.4735,5.3990,20.2014,5.3990,20.2014
15992.1894,5.4097,20.1742,5.4097,20.1742
16003.9053,5.4205,20.1476,5.4205,20.1476
16015.6212,5.4312,20.1195,5.4312,20.1195
16027.3371,5.4419,20.0917,5.4419,20.0917
16039.0530,5.4526,20.0652,5.4526,20.0652
16050.7689,5.4634,20.0369,5.4634,20.0369
16062.4847,5.4739,20.0094,5.4739,20.0094
16074.2006,5.4846,19.9816,5.4846,19.9816
16085.9165,5.4953,19.9541,5.4953,19.9541
16097.6324,5.5059,19.9252,5.5059,19.9252
16109.3483,5.5166,19.8969,5.5166,19.8969
16121.0642,5.5272,19.8695,5.5272,19.8695
16132.7801,5.5377,19.8394,5.5377,19.8394
16144.4960,5.5483,19.8109,5.5483,19.8109
16156.2119,5.5587,19.7819,5.5587,19.7819
16167.9278,5.5695,19.7530,5.5695,19.7530
16179.6436,5.5799,19.7240,5.5799,19.7240
16191.3595,5.5903,19.6945,5.5903,19.6945
16203.0754,5.6009,19.6653,5.6009,19.6653
16214.7913,5.6114,19.6362,5.6114,19.6362
16226.5072,5.6218,19.6073,5.6218,19.6073
16238.2231,5.6325,19.5771,5.6325,19.5771
16249.9390,5.6428,19.5466,5.6428,19.5466
16261.6549,5.6533,19.5170,5.6533,19.5170
16273.3708,5.6638,19.4865,5.6638,19.4865
16285.0866,5.6741,19.4561,5.6741,19.4561
16296.8025,5.6846,19.4255,5.6846,19.4255
16308.5184,5.6950,19.3968,5.6950,19.3968
16320.2343,5.7054,19.3652,5.7054,19.3652
16331.9502,5.7157,19.3340,5.7157,19.3340
16343.6661,5.7261,19.3039,5.7261,19.3039
16355.3820,5.7363,19.2729,5.7363,19.2729
16367.0979,5.7468,19.2424,5.7468,19.2424
16378.8138,5.7569,19.2109,5.7569,19.2109
16390.5297,5.7673,19.1790,5.7673,19.1790
16402.2455,5.7777,19.1472,5.7777,19.1472
16413.9614,5.7879,19.1170,5.7879,19.1170
16425.6773,5.7983,19.0844,5.7983,19.0844
16437.3932,5.8085,19.0533,5.8085,19.0533
16449.1091,5.8189,19.0216,5.8189,19.0216
16460.8250,5.8289,18.9885,5.8289,18.9885
16472.5409,5.8392,18.9569,5.8392,18.9569
16484.2568,5.8494,18.9246,5.8494,18.9246
16495.9727,5.8597,18.8924,5.8597,18.8924
16507.6886,5.8698,18.8600,5.8698,18.8600
16519.4044,5.8799,18.8279,5.8799,18.8279
16531.1203,5.8902,18.7952,5.8902,18.7952
16542.8362,5.9001,18.7623,5.9001,18.7623
16554.5521,5.9105,18.7294,5.9105,18.7294
16566.2680,5.9204,18.6971,5.9204,18.6971
16577.9839,5.9307,18.6624,5.9307,18.6624
16589.6998,5.9408,18.6301,5.9408,18.6301
16601.4157,5.9509,18.5962,5.9509,18.5962
16613.1316,5.9611,18.5630,5.9611,18.5630
16624.8474,5.9712,18.5288,5.9712,18.5288
16636.5633,5.9812,18.4958,5.9812,18.4958
16648.2792,5.9912,18.4618,5.9912,18.4618
16659.9951,6.0013,18.4286,6.0013,18.4286
16671.7110,6.0112,18.3940,6.0112,18.3940
16683.4269,6.0213,18.3600,6.0213,18.3600
16695.1428,6.0313,18.3263,6.0313,18.3263
16706.8587,6.0413,18.2912,6.0413,18.2912
16718.5746,6.0514,18.2569,6.0514,18.2569
16730.2905,6.0613,18.2228,6.0613,18.2228
16742.0063,6.0714,18.1885,6.0714,18.1885
16753.7222,6.0813,18.1533,6.0813,18.1533
16765.4381,6.0912,18.1185,6.0912,18.1185
16777.1540,6.1011,18.0835,6.1011,18.0835
16788.8699,6.1109,18.0482,6.1109,18.0482
16800.5858,6.1211,18.0122,6.1211,18.0122
16812.3017,6.1310,17.9775,6.1310,17.9775
16824.0176,6.1409,17.9416,6.1409,17.9416
16835.7335,6.1508,17.9066,6.1508,17.9066
16847.4494,6.1606,17.8706,6.1606,17.8706
16859.1652,6.1704,17.8356,6.1704,17.8356
16870.8811,6.1803,17.8000,6.1803,17.8000
16882.5970,6.1903,17.7633,6.1903,17.7633
16894.3129,6.2001,17.7279,6.2001,17.7279
16906.0288,6.2099,17.6914,6.2099,17.6914
16917.7447,6.2197,17.6539,6.2197,17.6539
16929.4606,6.2295,17.6182,6.2295,17.6182
16941.1765,6.2392,17.5824,6.2392,17.5824
16952.8924,6.2492,17.5449,6.2492,17.5449
16964.6082,6.2589,17.5079,6.2589,17.5079
16976.3241,6.2688,17.4711,6.2688,17.4711
16988.0400,6.2785,17.4358,6.2785,17.4358
16999.7559,6.2884,17.3978,6.2884,17.3978
17011.4718,6.2981,17.3613,6.2981,17.3613
17023.1877,6.3079,17.3236,6.3079,17.3236
17034.9036,6.3176,17.2857,6.3176,17.2857
17046.6195,6.3272,17.2477,6.3272,17.2477
17058.3354,6.3369,17.2110,6.3369,17.2110
17070.0513,6.3467,17.1735,6.3467,17.1735
17081.7671,6.3564,17.1360,6.3564,17.1360
17093.4830,6.3662,17.0972,6.3662,17.0972
17105.1989,6.3758,17.0596,6.3758,17.0596
17116.9148,6.3855,17.0209,6.3855,17.0209
17128.6307,6.3951,16.9826,6.3951,16.9826
17140.3466,6.4048,16.9446,6.4048,16.9446
17152.0625,6.4146,16.9061,6.4146,16.9061
17163.7784,6.4242,16.8674,6.4242,16.8674
17175.4943,6.4337,16.8280,6.4337,16.8280
17187.2102,6.4434,16.7897,6.4434,16.7897
17198.9260,6.4530,16.7512,6.4530,16.7512
17210.6419,6.4627,16.7124,6.4627,16.7124
17222.3578,6.4722,16.6730,6.4722,16.6730
17234.0737,6.4818,16.6340,6.4818,16.6340
17245.7896,6.4913,16.5943,6.4913,16.5943
17257.5055,6.5010,16.5552,6.5010,16.5552
17269.2214,6.5106,16.5156,6.5106,16.5156
17280.9373,6.5201,16.4758,6.5201,16.4758
17292.6532,6.5298,16.4358,6.5298,16.4358
17304.3691,6.5393,16.3958,6.5393,16.3958
17316.0849,6.5487,16.3561,6.5487,16.3561
17327.8008,6.5583,16.3158,6.5583,16.3158
17339.5167,6.5678,16.2756,6.5678,16.2756
17351.2326,6.5774,16.2352,6.5774,16.2352
17362.9485,6.5869,16.1956,6.5869,16.1956
17374.6644,6.5964,16.1545,6.5964,16.1545
17386.3803,6.6059,16.1143,6.6059,16.1143
17398.0962,6.6154,16.0732,6.6154,16.0732
17409.8121,6.6247,16.0328,6.6247,16.0328
17421.5279,6.6345,15.9909,6.6345,15.9909
17433.2438,6.6437,15.9501,6.6437,15.9501
17444.9597,6.6532,15.9087,6.6532,15.9087
17456.6756,6.6627,15.8676,6.6627,15.8676
17468.3915,6.6722,15.8259,6.6722,15.8259
17480.1074,6.6815,15.7844,6.6815,15.7844
17491.8233,6.6910,15.7428,6.6910,15.7428
17503.5392,6.7003,15.7011,6.7003,15.7011
17515.2551,6.7098,15.6592,6.7098,15.6592
17526.9710,6.7191,15.6174,6.7191,15.6174
17538.6868,6.7287,15.5757,6.7287,15.5757
17550.4027,6.7379,15.5339,6.7379,15.5339
17562.1186,6.7475,15.4911,6.7475,15.4911
17573.8345,6.7569,15.4473,6.7569,15.4473
17585.5504,6.7662,15.4063,6.7662,15.4063
17597.2663,6.7755,15.3636,6.7755,15.3636
17608.9822,6.7849,15.3203,6.7849,15.3203
17620.6981,6.7943,15.2773,6.7943,15.2773
17632.4140,6.8035,15.2345,6.8035,15.2345
17644.1299,6.8129,15.1912,6.8129,15.1912
17655.8457,6.8222,15.1485,6.8222,15.1485
17667.5616,6.8315,15.1048,6.8315,15.1048
17679.2775,6.8409,15.0622,6.8409,15.0622
17690.9934,6.8502,15.0184,6.8502,15.0184
17702.7093,6.8596,14.9752,6.8596,14.9752
17714.4252,6.8689,14.9304,6.8689,14.9304
17726.1411,6.8781,14.8866,6.8781,14.8866
17737.8570,6.8873,14.8427,6.8873,14.8427
17749.5729,6.8966,14.7983,6.8966,14.7983
17761.2887,6.9060,14.7538,6.9060,14.7538
17773.0046,6.9152,14.7096,6.9152,14.7096
17784.7205,6.9246,14.6654,6.9246,14.6654
17796.4364,6.9338,14.6211,6.9338,14.6211
17808.1523,6.9430,14.5764,6.9430,14.5764
17819.8682,6.9520,14.5314,6.9520,14.5314
17831.5841,6.9613,14.4869,6.9613,14.4869
17843.3000,6.9707,14.4409,6.9707,14.4409
17855.0159,6.9799,14.3960,6.9799,14.3960
17866.7318,6.9892,14.3510,6.9892,14.3510
17878.4476,6.9982,14.3058,6.9982,14.3058
17890.1635,7.0075,14.2613,7.0075,14.2613
17901.8794,7.0167,14.2147,7.0167,14.2147
17913.5953,7.0258,14.1694,7.0258,14.1694
17925.3112,7.0349,14.1232,7.0349,14.1232
17937.0271,7.0441,14.0770,7.0441,14.0770
17948.7430,7.0534,14.0315,7.0534,14.0315
17960.4589,7.0625,13.9858,7.0625,13.9858
17972.1748,7.0717,13.9390,7.0717,13.9390
17983.8907,7.0808,13.8916,7.0808,13.8916
17995.6065,7.0900,13.8463,7.0900,13.8463
18007.3224,7.0991,13.7990,7.0991,13.7990
18019.0383,7.1082,13.7527,7.1082,13.7527
18030.7542,7.1174,13.7054,7.1174,13.7054
18042.4701,7.1267,13.6585,7.1267,13.6585
18054.1860,7.1356,13.6117,7.1356,13.6117
18065.9019,7.1447,13.5648,7.1447,13.5648
18077.6178,7.1538,13.5164,7.1538,13.5164
18089.3337,7.1629,13.4697,7.1629,13.4697
18101.0495,7.1721,13.4220,7.1721,13.4220
18112.7654,7.1811,13.3734,7.1811,13.3734
18124.4813,7.1901,13.3268,7.1901,13.3268
18136.1972,7.1992,13.2782,7.1992,13.2782
18147.9131,7.2083,13.2307,7.2083,13.2307
18159.6290,7.2175,13.1823,7.2175,13.1823
18171.3449,7.2264,13.1336,7.2264,13.1336
18183.0608,7.2355,13.0858,7.2355,13.0858
18194.7767,7.2445,13.0367,7.2445,13.0367
18206.4926,7.2535,12.9878,7.2535,12.9878
18218.2084,7.2626,12.9399,7.2626,12.9399
18229.9243,7.2717,12.8902,7.2717,12.8902
18241.6402,7.2806,12.8408,7.2806,12.8408
18253.3561,7.2897,12.7924,7.2897,12.7924
18265.0720,7.2986,12.7429,7.2986,12.7429
18276.7879,7.3076,12.6935,7.3076,12.6935
18288.5038,7.3167,12.6440,7.3167,12.6440
18300.2197,7.3256,12.5940,7.3256,12.5940
18311.9356,7.3346,12.5447,7.3346,12.5447
18323.6515,7.3434,12.4952,7.3434,12.4952
18335.3673,7.3525,12.4449,7.3525,12.4449
18347.0832,7.3614,12.3942,7.3614,12.3942
18358.7991,7.3705,12.3435,7.3705,12.3435
18370.5150,7.3794,12.2944,7.3794,12.2944
18382.2309,7.3884,12.2435,7.3884,12.2435
18393.9468,7.3973,12.1924,7.3973,12.1924
18405.6627,7.4062,12.1429,7.4062,12.1429
18417.3786,7.4153,12.0911,7.4153,12.0911
18429.0945,7.4241,12.0402,7.4241,12.0402
18440.8103,7.4330,11.9900,7.4330,11.9900
18452.5262,7.4419,11.9380,7.4419,11.9380
18464.2421,7.4509,11.8867,7.4509,11.8867
18475.9580,7.4597,11.8357,7.4597,11.8357
18487.6739,7.4686,11.7834,7.4686,11.7834
18499.3898,7.4775,11.7310,7.4775,11.7310
18511.1057,7.4863,11.6809,7.4863,11.6809
18522.8216,7.4954,11.6282,7.4954,11.6282
18534.5375,7.5042,11.5762,7.5042,11.5762
18546.2534,7.5130,11.5237,7.5130,11.5237
18557.9692,7.5219,11.4714,7.5219,11.4714
18569.6851,7.5308,11.4192,7.5308,11.4192
18581.4010,7.5396,11.3660,7.5396,11.3660
18593.1169,7.5485,11.3134,7.5485,11.3134
18604.8328,7.5573,11.2600,7.5573,11.2600
18616.5487,7.5660,11.2077,7.5660,11.2077
18628.2646,7.5749,11.1532,7.5749,11.1532
18639.9805,7.5837,11.1022,7.5837,11.1022
18651.6964,7.5926,11.0471,7.5926,11.0471
18663.4123,7.6015,10.9940,7.6015,10.9940
18675.1281,7.6102,10.9400,7.6102,10.9400
18686.8440,7.6190,10.8860,7.6190,10.8860
18698.5599,7.6278,10.8330,7.6278,10.8330
18710.2758,7.6365,10.7788,7.6365,10.7788
18721.9917,7.6454,10.7240,7.6454,10.7240
18733.7076,7.6541,10.6699,7.6541,10.6699
18745.4235,7.6630,10.6166,7.6630,10.6166
18757.1394,7.6716,10.5611,7.6716,10.5611
18768.8553,7.6805,10.5064,7.6805,10.5064
18780.5711,7.6892,10.4513,7.6892,10.4513
18792.2870,7.6979,10.3961,7.6979,10.3961
18804.0029,7.7067,10.3417,7.7067,10.3417
18815.7188,7.7154,10.2863,7.7154,10.2863
18827.4347,7.7240,10.2318,7.7240,10.2318
18839.1506,7.7329,10.1757,7.7329,10.1757
18850.8665,7.7414,10.1204,7.7414,10.1204
18862.5824,7.7503,10.0647,7.7503,10.0647
18874.2983,7.7590,10.0081,7.7590,10.0081
18886.0142,7.7677,9.9531,7.7677,9.9531
18897.7300,7.7764,9.8968,7.7764,9.8968
18909.4459,7.7851,9.8397,7.7851,9.8397
18921.1618,7.7937,9.7833,7.7937,9.7833
18932.8777,7.8025,9.7270,7.8025,9.7270
18944.5936,7.8112,9.6700,7.8112,9.6700
18956.3095,7.8198,9.6140,7.8198,9.6140
18968.0254,7.8286,9.5568,7.8286,9.5568
18979.7413,7.8371,9.4991,7.8371,9.4991
18991.4572,7.8458,9.4422,7.8458,9.4422
19003.1731,7.8545,9.3851,7.8545,9.3851
19014.8889,7.8631,9.3274,7.8631,9.3274
19026.6048,7.8718,9.2702,7.8718,9.2702
19038.3207,7.8805,9.2119,7.8805,9.2119
19050.0366,7.8891,9.1535,7.8891,9.1535
19061.7525,7.8976,9.0961,7.8976,9.0961
19073.4684,7.9062,9.0387,7.9062,9.0387
19085.1843,7.9149,8.9800,7.9149,8.9800
19096.9002,7.9235,8.9214,7.9235,8.9214
19108.6161,7.9321,8.8630,7.9321,8.8630
19120.3320,7.9406,8.8034,7.9406,8.8034
19132.0478,7.9494,8.7449,7.9494,8.7449
19143.7637,7.9577,8.6858,7.9577,8.6858
19155.4796,7.9665,8.6265,7.9665,8.6265
19167.1955,7.9751,8.5680,7.9751,8.5680
19178.9114,7.9835,8.5088,7.9835,8.5088
19190.6273,7.9921,8.4484,7.9921,8.4484
19202.3432,8.0007,8.3890,8.0007,8.3890
19214.0591,8.0093,8.3293,8.0093,8.3293
19225.7750,8.0179,8.2689,8.0179,8.2689
19237.4908,8.0265,8.2088,8.0265,8.2088
19249.2067,8.0349,8.1486,8.0349,8.1486
19260.9226,8.0435,8.0883,8.0435,8.0883
19272.6385,8.0520,8.0274,8.0520,8.0274
19284.3544,8.0605,7.9669,8.0605,7.9669
19296.0703,8.0690,7.9070,8.0690,7.9070
19307.7862,8.0775,7.8454,8.0775,7.8454
19319.5021,8.0860,7.7836,8.0860,7.7836
19331.2180,8.0945,7.7234,8.0945,7.7234
19342.9339,8.1030,7.6619,8.1030,7.6619
19354.6497,8.1115,7.6002,8.1115,7.6002
19366.3656,8.1199,7.5384,8.1199,7.5384
19378.0815,8.1284,7.4762,8.1284,7.4762
19389.7974,8.1370,7.4147,8.1370,7.4147
19401.5133,8.1454,7.3521,8.1454,7.3521
19413.2292,8.1538,7.2899,8.1538,7.2899
19424.9451,8.1624,7.2285,8.1624,7.2285
19436.6610,8.1708,7.1654,8.1708,7.1654
19448.3769,8.1792,7.1023,8.1792,7.1023
19460.0928,8.1877,7.0398,8.1877,7.0398
19471.8086,8.1961,6.9772,8.1961,6.9772
19483.5245,8.2045,6.9138,8.2045,6.9138
19495.2404,8.2129,6.8505,8.2129,6.8505
19506.9563,8.2213,6.7864,8.2213,6.7864
19518.6722,8.2298,6.7241,8.2298,6.7241
19530.3881,8.2382,6.6602,8.2382,6.6602
19542.1040,8.2466,6.5956,8.2466,6.5956
19553.8199,8.2551,6.5315,8.2551,6.5315
19565.5358,8.2633,6.4676,8.2633,6.4676
19577.2516,8.2718,6.4033,8.2718,6.4033
19588.9675,8.2801,6.3396,8.2801,6.3396
19600.6834,8.2885,6.2742,8.2885,6.2742
19612.3993,8.2970,6.2093,8.2970,6.2093
19624.1152,8.3052,6.1449,8.3052,6.1449
19635.8311,8.3136,6.0798,8.3136,6.0798
19647.5470,8.3221,6.0146,8.3221,6.0146
19659.2629,8.3303,5.9491,8.3303,5.9491
19670.9788,8.3388,5.8843,8.3388,5.8843
19682.6947,8.3471,5.8172,8.3471,5.8172
19694.4105,8.3555,5.7524,8.3555,5.7524
19706.1264,8.3637,5.6856,8.3637,5.6856
19717.8423,8.3721,5.6203,8.3721,5.6203
19729.5582,8.3804,5.5538,8.3804,5.5538
19741.2741,8.3888,5.4860,8.3888,5.4860
19752.9900,8.3970,5.4209,8.3970,5.4209
19764.7059,8.4053,5.3538,8.4053,5.3538
19776.4218,8.4137,5.2865,8.4137,5.2865
19788.1377,8.4220,5.2199,8.4220,5.2199
19799.8536,8.4303,5.1527,8.4303,5.1527
19811.5694,8.4385,5.0847,8.4385,5.0847
19823.2853,8.4469,5.0181,8.4469,5.0181
19835.0012,8.4550,4.9504,8.4550,4.9504
19846.7171,8.4634,4.8828,8.4634,4.8828
19858.4330,8.4715,4.8142,8.4715,4.8142
19870.1489,8.4799,4.7465,8.4799,4.7465
19881.8648,8.4882,4.6778,8.4882,4.6778
19893.5807,8.4964,4.6095,8.4964,4.6095
19905.2966,8.5046,4.5402,8.5046,4.5402
19917.0124,8.5128,4.4719,8.5128,4.4719
19928.7283,8.5212,4.4030,8.5212,4.4030
19940.4442,8.5294,4.3342,8.5294,4.3342
19952.1601,8.5376,4.2651,8.5376,4.2651
19963.8760,8.5458,4.1956,8.5458,4.1956
19975.5919,8.5542,4.1257,8.5542,4.1257
19987.3078,8.5623,4.0557,8.5623,4.0557
19999.0237,8.5705,3.9860,8.5705,3.9860
20010.7396,8.5787,3.9163,8.5787,3.9163
20022.4555,8.5869,3.8462,8.5869,3.8462
20034.1713,8.5951,3.7759,8.5951,3.7759
20045.8872,8.6033,3.7041,8.6033,3.7041
20057.6031,8.6115,3.6341,8.6115,3.6341
20069.3190,8.6196,3.5643,8.6196,3.5643
20081.0349,8.6279,3.4927,8.6279,3.4927
20092.7508,8.6361,3.4212,8.6361,3.4212
20104.4667,8.6443,3.3493,8.6443,3.3493
20116.1826,8.6523,3.2781,8.6523,3.2781
20127.8985,8.6605,3.2064,8.6605,3.2064
20139.6144,8.6687,3.1341,8.6687,3.1341
20151.3302,8.6768,3.0628,8.6768,3.0628
20163.0461,8.6850,2.9905,8.6850,2.9905
20174.7620,8.6932,2.9179,8.6932,2.9179
20186.4779,8.7012,2.8451,8.7012,2.8451
20198.1938,8.7094,2.7722,8.7094,2.7722
20209.9097,8.7176,2.6992,8.7176,2.6992
20221.6256,8.7257,2.6266,8.7257,2.6266
20233.3415,8.7338,2.5535,8.7338,2.5535
20245.0574,8.7418,2.4800,8.7418,2.4800
20256.7732,8.7500,2.4060,8.7500,2.4060
20268.4891,8.7581,2.3328,8.7581,2.3328
20280.2050,8.7662,2.2588,8.7662,2.2588
20291.9209,8.7744,2.1842,8.7744,2.1842
20303.6368,8.7824,2.1109,8.7824,2.1109
20315.3527,8.7904,2.0357,8.7904,2.0357
20327.0686,8.7986,1.9613,8.7986,1.9613
20338.7845,8.8067,1.8867,8.8067,1.8867
20350.5004,8.8148,1.8114,8.8148,1.8114
20362.2163,8.8228,1.7371,8.8228,1.7371
20373.9321,8.8310,1.6618,8.8310,1.6618
20385.6480,8.8390,1.5862,8.8390,1.5862
20397.3639,8.8470,1.5099,8.8470,1.5099
20409.0798,8.8552,1.4349,8.8552,1.4349
20420.7957,8.8633,1.3579,8.8633,1.3579
20432.5116,8.8712,1.2814,8.8712,1.2814
20444.2275,8.8795,1.2061,8.8795,1.2061
20455.9434,8.8874,1.1291,8.8874,1.1291
20467.6593,8.8955,1.0524,8.8955,1.0524
20479.3752,8.9034,0.9750,8.9034,0.9750
20491.0910,8.9116,0.8984,8.9116,0.8984
20502.8069,8.9195,0.8210,8.9195,0.8210
20514.5228,8.9276,0.7437,8.9276,0.7437
20526.2387,8.9355,0.6658,8.9355,0.6658
20537.9546,8.9436,0.5880,8.9436,0.5880
20549.6705,8.9515,0.5099,8.9515,0.5099
20561.3864,8.9596,0.4310,8.9596,0.4310
20573.1023,8.9676,0.3528,8.9676,0.3528
20584.8182,8.9756,0.2750,8.9756,0.2750
20596.5340,8.9836,0.1962,8.9836,0.1962
20608.2499,8.9916,0.1168,8.9916,0.1168
20619.9658,8.9996,0.0379,8.9996,0.0379
20631.6817,9.0076,-0.0409,9.0076,-0.0409
20643.3976,9.0156,-0.1209,9.0156,-0.1209
20655.1135,9.0236,-0.1996,9.0236,-0.1996
20666.8294,9.0317,-0.2800,9.0317,-0.2800
20678.5453,9.0396,-0.3600,9.0396,-0.3600
20690.2612,9.0477,-0.4403,9.0477,-0.4403
20701.9771,9.0556,-0.5214,9.0556,-0.5214
20713.6929,9.0636,-0.6015,9.0636,-0.6015
20725.4088,9.0716,-0.6827,9.0716,-0.6827
20737.1247,9.0796,-0.7633,9.0796,-0.7633
20748.8406,9.0876,-0.8451,9.0876,-0.8451
20760.5565,9.0953,-0.9267,9.0953,-0.9267
20772.2724,9.1033,-1.0080,9.1033,-1.0080
20783.9883,9.1113,-1.0897,9.1113,-1.0897
20795.7042,9.1193,-1.1723,9.1193,-1.1723
20807.4201,9.1273,-1.2546,9.1273,-1.2546
20819.1360,9.1352,-1.3366,9.1352,-1.3366
20830.8518,9.1432,-1.4191,9.1432,-1.4191
20842.5677,9.1512,-1.5024,9.1512,-1.5024
20854.2836,9.1591,-1.5856,9.1591,-1.5856
20865.9995,9.1671,-1.6687,9.1671,-1.6687
20877.7154,9.1749,-1.7520,9.1749,-1.7520
20889.4313,9.1829,-1.8354,9.1829,-1.8354
20901.1472,9.1909,-1.9198,9.1909,-1.9198
20912.8631,9.1988,-2.0038,9.1988,-2.0038
20924.5790,9.2068,-2.0879,9.2068,-2.0879
20936.2948,9.2146,-2.1723,9.2146,-2.1723
20948.0107,9.2227,-2.2570,9.2227,-2.2570
20959.7266,9.2306,-2.3420,9.2306,-2.3420
20971.4425,9.2385,-2.4264,9.2385,-2.4264
20983.1584,9.2465,-2.5126,9.2465,-2.5126
20994.8743,9.2544,-2.5976,9.2544,-2.5976
21006.5902,9.2624,-2.6844,9.2624,-2.6844
21018.3061,9.2702,-2.7699,9.2702,-2.7699
21030.0220,9.2781,-2.8564,9.2781,-2.8564
21041.7379,9.2860,-2.9426,9.2860,-2.9426
21053.4537,9.2939,-3.0287,9.2939,-3.0287
21065.1696,9.3019,-3.1155,9.3019,-3.1155
21076.8855,9.3098,-3.2035,9.3098,-3.2035
21088.6014,9.3177,-3.2899,9.3177,-3.2899
21100.3173,9.3257,-3.3783,9.3257,-3.3783
21112.0332,9.3337,-3.4657,9.3337,-3.4657
21123.7491,9.3415,-3.5535,9.3415,-3.5535
21135.4650,9.3494,-3.6415,9.3494,-3.6415
21147.1809,9.3574,-3.7307,9.3574,-3.7307
21158.8968,9.3653,-3.8189,9.3653,-3.8189
21170.6126,9.3732,-3.9073,9.3732,-3.9073
21182.3285,9.3812,-3.9972,9.3812,-3.9972
21194.0444,9.3892,-4.0863,9.3892,-4.0863
21205.7603,9.3970,-4.1749,9.3970,-4.1749
21217.4762,9.4049,-4.2656,9.4049,-4.2656
21229.1921,9.4128,-4.3557,9.4128,-4.3557
21240.9080,9.4208,-4.4464,9.4208,-4.4464
21252.6239,9.4286,-4.5365,9.4286,-4.5365
21264.3398,9.4367,-4.6265,9.4367,-4.6265
21276.0557,9.4446,-4.7182,9.4446,-4.7182
21287.7715,9.4526,-4.8099,9.4526,-4.8099
21299.4874,9.4605,-4.9012,9.4605,-4.9012
21311.2033,9.4684,-4.9923,9.4684,-4.9923
21322.9192,9.4763,-5.0847,9.4763,-5.0847
21334.6351,9.4843,-5.1767,9.4843,-5.1767
21346.3510,9.4922,-5.2693,9.4922,-5.2693
21358.0669,9.5001,-5.3617,9.5001,-5.3617
21369.7828,9.5081,-5.4554,9.5081,-5.4554
21381.4987,9.5160,-5.5477,9.5160,-5.5477
21393.2145,9.5240,-5.6413,9.5240,-5.6413
21404.9304,9.5319,-5.7350,9.5319,-5.7350
21416.6463,9.5399,-5.8284,9.5399,-5.8284
21428.3622,9.5478,-5.9234,9.5478,-5.9234
21440.0781,9.5558,-6.0181,9.5558,-6.0181
21451.7940,9.5637,-6.1129,9.5637,-6.1129
21463.5099,9.5717,-6.2066,9.5717,-6.2066
21475.2258,9.5797,-6.3026,9.5797,-6.3026
21486.9417,9.5878,-6.3982,9.5878,-6.3982
21498.6576,9.5956,-6.4941,9.5956,-6.4941
21510.3734,9.6036,-6.5898,9.6036,-6.5898
21522.0893,9.6116,-6.6869,9.6116,-6.6869
21533.8052,9.6196,-6.7831,9.6196,-6.7831
21545.5211,9.6275,-6.8801,9.6275,-6.8801
21557.2370,9.6356,-6.9773,9.6356,-6.9773
21568.9529,9.6436,-7.0738,9.6436,-7.0738
21580.6688,9.6517,-7.1719,9.6517,-7.1719
21592.3847,9.6595,-7.2704,9.6595,-7.2704
21604.1006,9.6676,-7.3684,9.6676,-7.3684
21615.8165,9.6757,-7.4663,9.6757,-7.4663
21627.5323,9.6837,-7.5657,9.6837,-7.5657
21639.2482,9.6917,-7.6640,9.6917,-7.6640
21650.9641,9.6997,-7.7636,9.6997,-7.7636
21662.6800,9.7078,-7.8644,9.7078,-7.8644
21674.3959,9.7158,-7.9641,9.7158,-7.9641
21686.1118,9.7239,-8.0645,9.7239,-8.0645
21697.8277,9.7319,-8.1648,9.7319,-8.1648
21709.5436,9.7399,-8.2655,9.7399,-8.2655
21721.2595,9.7481,-8.3668,9.7481,-8.3668
21732.9753,9.7562,-8.4680,9.7562,-8.4680
21744.6912,9.7642,-8.5706,9.7642,-8.5706
21756.4071,9.7723,-8.6722,9.7723,-8.6722
21768.1230,9.7805,-8.7746,9.7805,-8.7746
21779.8389,9.7885,-8.8773,9.7885,-8.8773
21791.5548,9.7967,-8.9799,9.7967,-8.9799
21803.2707,9.8049,-9.0831,9.8049,-9.0831
21814.9866,9.8130,-9.1862,9.8130,-9.1862
21826.7025,9.8212,-9.2913,9.8212,-9.2913
21838.4184,9.8293,-9.3960,9.8293,-9.3960
21850.1342,9.8374,-9.5000,9.8374,-9.5000
21861.8501,9.8456,-9.6047,9.8456,-9.6047
21873.5660,9.8538,-9.7102,9.8538,-9.7102
21885.2819,9.8620,-9.8152,9.8620,-9.8152
21896.9978,9.8702,-9.9213,9.8702,-9.9213
21908.7137,9.8785,-10.0282,9.8785,-10.0282
21920.4296,9.8867,-10.1345,9.8867,-10.1345
21932.1455,9.8951,-10.2414,9.8951,-10.2414
21943.8614,9.9032,-10.3485,9.9032,-10.3485
21955.5773,9.9114,-10.4566,9.9114,-10.4566
21967.2931,9.9198,-10.5639,9.9198,-10.5639
21979.0090,9.9280,-10.6731,9.9280,-10.6731
21990.7249,9.9363,-10.7815,9.9363,-10.7815
22002.4408,9.9447,-10.8906,9.9447,-10.8906
22014.1567,9.9531,-11.0005,9.9531,-11.0005
22025.8726,9.9613,-11.1097,9.9613,-11.1097
22037.5885,9.9697,-11.2196,9.9697,-11.2196
22049.3044,9.9781,-11.3308,9.9781,-11.3308
22061.0203,9.9866,-11.4422,9.9866,-11.4422
22072.7361,9.9948,-11.5528,9.9948,-11.5528
22084.4520,10.0033,-11.6646,10.0033,-11.6646
22096.1679,10.0118,-11.7765,10.0118,-11.7765
22107.8838,10.0203,-11.8889,10.0203,-11.8889
22119.5997,10.0287,-12.0011,10.0287,-12.0011
22131.3156,10.0372,-12.1154,10.0372,-12.1154
22143.0315,10.0457,-12.2295,10.0457,-12.2295
22154.7474,10.0543,-12.3431,10.0543,-12.3431
22166.4633,10.0628,-12.4577,10.0628,-12.4577
22178.1792,10.0713,-12.5719,10.0713,-12.5719
22189.8950,10.0799,-12.6877,10.0799,-12.6877
22201.6109,10.0886,-12.8035,10.0886,-12.8035
22213.3268,10.0973,-12.9196,10.0973,-12.9196
22225.0427,10.1058,-13.0360,10.1058,-13.0360
22236.7586,10.1145,-13.1531,10.1145,-13.1531
22248.4745,10.1232,-13.2706,10.1232,-13.2706
22260.1904,10.1319,-13.3877,10.1319,-13.3877
22271.9063,10.1407,-13.5070,10.1407,-13.5070
22283.6222,10.1495,-13.6259,10.1495,-13.6259
22295.3381,10.1582,-13.7446,10.1582,-13.7446
22307.0539,10.1671,-13.8647,10.1671,-13.8647
22318.7698,10.1759,-13.9847,10.1759,-13.9847
22330.4857,10.1848,-14.1057,10.1848,-14.1057
22342.2016,10.1937,-14.2256,10.1937,-14.2256
22353.9175,10.2027,-14.3481,10.2027,-14.3481
22365.6334,10.2116,-14.4701,10.2116,-14.4701
22377.3493,10.2205,-14.5929,10.2205,-14.5929
22389.0652,10.2295,-14.7160,10.2295,-14.7160
22400.7811,10.2386,-14.8393,10.2386,-14.8393
22412.4969,10.2476,-14.9639,10.2476,-14.9639
22424.2128,10.2567,-15.0884,10.2567,-15.0884
22435.9287,10.2660,-15.2132,10.2660,-15.2132
22447.6446,10.2751,-15.3390,10.2751,-15.3390
22459.3605,10.2842,-15.4651,10.2842,-15.4651
22471.0764,10.2935,-15.5915,10.2935,-15.5915
22482.7923,10.3028,-15.7188,10.3028,-15.7188
22494.5082,10.3121,-15.8467,10.3121,-15.8467
22506.2241,10.3215,-15.9753,10.3215,-15.9753
22517.9400,10.3309,-16.1046,10.3309,-16.1046
22529.6558,10.3402,-16.2337,10.3402,-16.2337
22541.3717,10.3498,-16.3641,10.3498,-16.3641
22553.0876,10.3593,-16.4950,10.3593,-16.4950
22564.8035,10.3687,-16.6257,10.3687,-16.6257
22576.5194,10.3784,-16.7577,10.3784,-16.7577
22588.2353,10.3880,-16.8907,10.3880,-16.8907
22599.9512,10.3976,-17.0245,10.3976,-17.0245
22611.6671,10.4074,-17.1572,10.4074,-17.1572
22623.3830,10.4171,-17.2925,10.4171,-17.2925
22635.0989,10.4270,-17.4271,10.4270,-17.4271
22646.8147,10.4368,-17.5625,10.4368,-17.5625
22658.5306,10.4467,-17.6996,10.4467,-17.6996
22670.2465,10.4567,-17.8357,10.4567,-17.8357
22681.9624,10.4668,-17.9733,10.4668,-17.9733
22693.6783,10.4768,-18.1128,10.4768,-18.1128
22705.3942,10.4870,-18.2512,10.4870,-18.2512
22717.1101,10.4973,-18.3916,10.4973,-18.3916
22728.8260,10.5073,-18.5317,10.5073,-18.5317
22740.5419,10.5177,-18.6725,10.5177,-18.6725
22752.2577,10.5282,-18.8159,10.5282,-18.8159
22763.9736,10.5386,-18.9583,10.5386,-18.9583
22775.6895,10.5490,-19.1025,10.5490,-19.1025
22787.4054,10.5597,-19.2469,10.5597,-19.2469
22799.1213,10.5703,-19.3912,10.5703,-19.3912
22810.8372,10.5809,-19.5372,10.5809,-19.5372
22822.5531,10.5918,-19.6849,10.5918,-19.6849
22834.2690,10.6026,-19.8325,10.6026,-19.8325
22845.9849,10.6136,-19.9807,10.6136,-19.9807
22857.7008,10.6245,-20.1305,10.6245,-20.1305
22869.4166,10.6356,-20.2806,10.6356,-20.2806
22881.1325,10.6468,-20.4320,10.6468,-20.4320
22892.8484,10.6581,-20.5841,10.6581,-20.5841
22904.5643,10.6694,-20.7364,10.6694,-20.7364
22916.2802,10.6808,-20.8911,10.6808,-20.8911
22927.9961,10.6922,-21.0464,10.6922,-21.0464
22939.7120,10.7039,-21.2020,10.7039,-21.2020
22951.4279,10.7156,-21.3583,10.7156,-21.3583
22963.1438,10.7274,-21.5167,10.7274,-21.5167
22974.8597,10.7393,-21.6761,10.7393,-21.6761
22986.5755,10.7514,-21.8361,10.7514,-21.8361
22998.2914,10.7634,-21.9981,10.7634,-21.9981
23010.0073,10.7757,-22.1599,10.7757,-22.1599
23021.7232,10.7880,-22.3229,10.7880,-22.3229
23033.4391,10.8004,-22.4879,10.8004,-22.4879
23045.1550,10.8129,-22.6539,10.8129,-22.6539
23056.8709,10.8256,-22.8201,10.8256,-22.8201
23068.5868,10.8386,-22.9889,10.8386,-22.9889
23080.3027,10.8516,-23.1582,10.8516,-23.1582
23092.0186,10.8647,-23.3295,10.8647,-23.3295
23103.7344,10.8778,-23.5010,10.8778,-23.5010
23115.4503,10.8912,-23.6750,10.8912,-23.6750
23127.1662,10.9048,-23.8501,10.9048,-23.8501
23138.8821,10.9184,-24.0260,10.9184,-24.0260
23150.5980,10.9323,-24.2032,10.9323,-24.2032
23162.3139,10.9463,-24.3829,10.9463,-24.3829
23174.0298,10.9604,-24.5636,10.9604,-24.5636
23185.7457,10.9748,-24.7454,10.9748,-24.7454
23197.4616,10.9893,-24.9289,10.9893,-24.9289
23209.1774,11.0040,-25.1149,11.0040,-25.1149
23220.8933,11.0190,-25.3016,11.0190,-25.3016
23232.6092,11.0341,-25.4911,11.0341,-25.4911
23244.3251,11.0494,-25.6817,11.0494,-25.6817
23256.0410,11.0650,-25.8743,11.0650,-25.8743
23267.7569,11.0807,-26.0687,11.0807,-26.0687
23279.4728,11.0966,-26.2656,11.0966,-26.2656
23291.1887,11.1128,-26.4634,11.1128,-26.4634
23302.9046,11.1294,-26.6636,11.1294,-26.6636
23314.6205,11.1460,-26.8662,11.1460,-26.8662
23326.3363,11.1631,-27.0712,11.1631,-27.0712
23338.0522,11.1804,-27.2776,11.1804,-27.2776
23349.7681,11.1980,-27.4871,11.1980,-27.4871
23361.4840,11.2158,-27.6991,11.2158,-27.6991
23373.1999,11.2340,-27.9136,11.2340,-27.9136
23384.9158,11.2525,-28.1301,11.2525,-28.1301
23396.6317,11.2713,-28.3490,11.2713,-28.3490
23408.3476,11.2905,-28.5713,11.2905,-28.5713
23420.0635,11.3101,-28.7964,11.3101,-28.7964
23431.7794,11.3300,-29.0245,11.3300,-29.0245
23443.4952,11.3504,-29.2559,11.3504,-29.2559
23455.2111,11.3713,-29.4897,11.3713,-29.4897
23466.9270,11.3925,-29.7279,11.3925,-29.7279
23478.6429,11.4143,-29.9688,11.4143,-29.9688
23490.3588,11.4366,-30.2136,11.4366,-30.2136
23502.0747,11.4592,-30.4625,11.4592,-30.4625
23513.7906,11.4826,-30.7148,11.4826,-30.7148
23525.5065,11.5066,-30.9723,11.5066,-30.9723
23537.2224,11.5309,-31.2328,11.5309,-31.2328
23548.9382,11.5559,-31.4988,11.5559,-31.4988
23560.6541,11.5818,-31.7691,11.5818,-31.7691
23572.3700,11.6084,-32.0443,11.6084,-32.0443
23584.0859,11.6357,-32.3262,11.6357,-32.3262
23595.8018,11.6638,-32.6125,11.6638,-32.6125
23607.5177,11.6929,-32.9049,11.6929,-32.9049
23619.2336,11.7229,-33.2041,11.7229,-33.2041
23630.9495,11.7538,-33.5100,11.7538,-33.5100
23642.6654,11.7860,-33.8230,11.7860,-33.8230
23654.3813,11.8191,-34.1438,11.8191,-34.1438
23666.0971,11.8537,-34.4726,11.8537,-34.4726
23677.8130,11.8895,-34.8106,11.8895,-34.8106
23689.5289,11.9270,-35.1584,11.9270,-35.1584
23701.2448,11.9660,-35.5174,11.9660,-35.5174
23712.9607,12.0068,-35.8868,12.0068,-35.8868
23724.6766,12.0497,-36.2688,12.0497,-36.2688
23736.3925,12.0949,-36.6661,12.0949,-36.6661
23748.1084,12.1425,-37.0783,12.1425,-37.0783
23759.8243,12.1932,-37.5095,12.1932,-37.5095
23771.5402,12.2471,-37.9632,12.2471,-37.9632
23783.2560,12.3048,-38.4431,12.3048,-38.4431
23794.9719,12.3666,-38.9566,12.3666,-38.9566
23806.6878,12.4327,-39.5122,12.4327,-39.5122
23818.4037,12.5032,-40.1188,12.5032,-40.1188
23830.1196,12.5775,-40.7881,12.5775,-40.7881
23841.8355,12.6550,-41.5331,12.6550,-41.5331
23853.5514,12.7341,-42.3658,12.7341,-42.3658
23865.2673,12.8131,-43.2972,12.8131,-43.2972
23876.9832,12.8892,-44.3374,12.8892,-44.3374
23888.6990,12.9595,-45.4911,12.9595,-45.4911
23900.4149,13.0209,-46.7599,13.0209,-46.7599
23912.1308,13.0698,-48.1413,13.0698,-48.1413
23923.8467,13.1024,-49.6263,13.1024,-49.6263
23935.5626,13.1157,-51.2018,13.1157,-51.2018
23947.2785,13.1066,-52.8488,13.1066,-52.8488
23958.9944,13.0728,-54.5456,13.0728,-54.5456
23970.7103,13.0124,-56.2665,13.0124,-56.2665
23982.4262,12.9244,-57.9826,12.9244,-57.9826
23994.1421,12.8086,-59.6635,12.8086,-59.6635
24005.8579,12.6656,-61.2800,12.6656,-61.2800
24017.5738,12.4972,-62.8008,12.4972,-62.8008
24029.2897,12.3057,-64.1992,12.3057,-64.1992
24041.0056,12.0947,-65.4506,12.0947,-65.4506
24052.7215,11.8682,-66.5356,11.8682,-66.5356
24064.4374,11.6311,-67.4407,11.6311,-67.4407
24076.1533,11.3884,-68.1600,11.3884,-68.1600
24087.8692,11.1452,-68.6955,11.1452,-68.6955
24099.5851,10.9066,-69.0569,10.9066,-69.0569
24111.3010,10.6767,-69.2607,10.6767,-69.2607
24123.0168,10.4588,-69.3294,10.4588,-69.3294
24134.7327,10.2554,-69.2886,10.2554,-69.2886
24146.4486,10.0674,-69.1646,10.0674,-69.1646
24158.1645,9.8951,-68.9825,9.8951,-68.9825
24169.8804,9.7375,-68.7641,9.7375,-68.7641
24181.5963,9.5935,-68.5268,9.5935,-68.5268
24193.3122,9.4612,-68.2834,9.4612,-68.2834
24205.0281,9.3391,-68.0424,9.3391,-68.0424
24216.7440,9.2254,-67.8085,9.2254,-67.8085
24228.4598,9.1188,-67.5839,9.1188,-67.5839
24240.1757,9.0181,-67.3690,9.0181,-67.3690
24251.8916,8.9225,-67.1634,8.9225,-67.1634
24263.6075,8.8312,-66.9660,8.8312,-66.9660
24275.3234,8.7438,-66.7759,8.7438,-66.7759
24287.0393,8.6599,-66.5924,8.6599,-66.5924
24298.7552,8.5790,-66.4147,8.5790,-66.4147
24310.4711,8.5011,-66.2425,8.5011,-66.2425
24322.1870,8.4258,-66.0752,8.4258,-66.0752
24333.9029,8.3528,-65.9125,8.3528,-65.9125
24345.6187,8.2822,-65.7541,8.2822,-65.7541
24357.3346,8.2136,-65.5996,8.2136,-65.5996
24369.0505,8.1469,-65.4488,8.1469,-65.4488
24380.7664,8.0821,-65.3015,8.0821,-65.3015
24392.4823,8.0190,-65.1574,8.0190,-65.1574
24404.1982,7.9575,-65.0163,7.9575,-65.0163
24415.9141,7.8975,-64.8782,7.8975,-64.8782
24427.6300,7.8389,-64.7429,7.8389,-64.7429
24439.3459,7.7817,-64.6102,7.7817,-64.6102
24451.0618,7.7257,-64.4800,7.7257,-64.4800
24462.7776,7.6710,-64.3521,7.6710,-64.3521
24474.4935,7.6174,-64.2265,7.6174,-64.2265
24486.2094,7.5649,-64.1030,7.5649,-64.1030
24497.9253,7.5135,-63.9814,7.5135,-63.9814
24509.6412,7.4631,-63.8618,7.4631,-63.8618
24521.3571,7.4136,-63.7441,7.4136,-63.7441
24533.0730,7.3651,-63.6281,7.3651,-63.6281
24544.7889,7.3174,-63.5140,7.3174,-63.5140
24556.5048,7.2706,-63.4014,7.2706,-63.4014
24568.2206,7.2246,-63.2906,7.2246,-63.2906
24579.9365,7.1794,-63.1812,7.1794,-63.1812
24591.6524,7.1349,-63.0733,7.1349,-63.0733
24603.3683,7.0912,-62.9669,7.0912,-62.9669
24615.0842,7.0481,-62.8617,7.0481,-62.8617
24626.8001,7.0057,-62.7579,7.0057,-62.7579
24638.5160,6.9640,-62.6553,6.9640,-62.6553
24650.2319,6.9229,-62.5540,6.9229,-62.5540
24661.9478,6.8824,-62.4539,6.8824,-62.4539
24673.6637,6.8425,-62.3550,6.8425,-62.3550
24685.3795,6.8032,-62.2572,6.8032,-62.2572
24697.0954,6.7644,-62.1605,6.7644,-62.1605
24708.8113,6.7261,-62.0648,6.7261,-62.0648
24720.5272,6.6883,-61.9702,6.6883,-61.9702
24732.2431,6.6511,-61.8766,6.6511,-61.8766
24743.9590,6.6143,-61.7839,6.6143,-61.7839
24755.6749,6.5780,-61.6921,6.5780,-61.6921
24767.3908,6.5422,-61.6013,6.5422,-61.6013
24779.1067,6.5068,-61.5113,6.5068,-61.5113
24790.8226,6.4718,-61.4223,6.4718,-61.4223
24802.5384,6.4373,-61.3340,6.4373,-61.3340
24814.2543,6.4032,-61.2466,6.4032,-61.2466
24825.9702,6.3695,-61.1600,6.3695,-61.1600
24837.6861,6.3361,-61.0742,6.3361,-61.0742
24849.4020,6.3032,-60.9892,6.3032,-60.9892
24861.1179,6.2706,-60.9048,6.2706,-60.9048
24872.8338,6.2384,-60.8212,6.2384,-60.8212
24884.5497,6.2065,-60.7383,6.2065,-60.7383
24896.2656,6.1749,-60.6561,6.1749,-60.6561
24907.9814,6.1438,-60.5745,6.1438,-60.5745
24919.6973,6.1129,-60.4936,6.1129,-60.4936
24931.4132,6.0823,-60.4134,6.0823,-60.4134
24943.1291,6.0521,-60.3338,6.0521,-60.3338
24954.8450,6.0222,-60.2548,6.0222,-60.2548
24966.5609,5.9925,-60.1764,5.9925,-60.1764
24978.2768,5.9632,-60.0986,5.9632,-60.0986
24989.9927,5.9341,-60.0214,5.9341,-60.0214
25001.7086,5.9053,-59.9447,5.9053,-59.9447
25013.4245,5.8768,-59.8686,5.8768,-59.8686
25025.1403,5.8486,-59.7930,5.8486,-59.7930
25036.8562,5.8206,-59.7179,5.8206,-59.7179
25048.5721,5.7929,-59.6434,5.7929,-59.6434
25060.2880,5.7654,-59.5694,5.7654,-59.5694
25072.0039,5.7382,-59.4959,5.7382,-59.4959
25083.7198,5.7112,-59.4228,5.7112,-59.4228
25095.4357,5.6845,-59.3503,5.6845,-59.3503
25107.1516,5.6580,-59.2782,5.6580,-59.2782
25118.8675,5.6317,-59.2066,5.6317,-59.2066
25130.5834,5.6057,-59.1354,5.6057,-59.1354
25142.2992,5.5798,-59.0647,5.5798,-59.0647
25154.0151,5.5542,-58.9944,5.5542,-58.9944
25165.7310,5.5288,-58.9245,5.5288,-58.9245
25177.4469,5.5036,-58.8551,5.5036,-58.8551
25189.1628,5.4786,-58.7861,5.4786,-58.7861
25200.8787,5.4538,-58.7175,5.4538,-58.7175
25212.5946,5.4292,-58.6492,5.4292,-58.6492
25224.3105,5.4048,-58.5814,5.4048,-58.5814
25236.0264,5.3806,-58.5140,5.3806,-58.5140
25247.7423,5.3565,-58.4469,5.3565,-58.4469
25259.4581,5.3327,-58.3802,5.3327,-58.3802
25271.1740,5.3090,-58.3139,5.3090,-58.3139
25282.8899,5.2855,-58.2479,5.2855,-58.2479
25294.6058,5.2622,-58.1823,5.2622,-58.1823
25306.3217,5.2391,-58.1170,5.2391,-58.1170
25318.0376,5.2161,-58.0521,5.2161,-58.0521
25329.7535,5.1933,-57.9875,5.1933,-57.9875
25341.4694,5.1707,-57.9233,5.1707,-57.9233
25353.1853,5.1482,-57.8594,5.1482,-57.8594
25364.9011,5.1259,-57.7958,5.1259,-57.7958
25376.6170,5.1037,-57.7325,5.1037,-57.7325
25388.3329,5.0817,-57.6695,5.0817,-57.6695
25400.0488,5.0598,-57.6069,5.0598,-57.6069
25411.7647,5.0381,-57.5445,5.0381,-57.5445
25423.4806,5.0166,-57.4825,5.0166,-57.4825
25435.1965,4.9951,-57.4207,4.9951,-57.4207
25446.9124,4.9739,-57.3592,4.9739,-57.3592
25458.6283,4.9527,-57.2980,4.9527,-57.2980
25470.3442,4.9317,-57.2371,4.9317,-57.2371
25482.0600,4.9109,-57.1765,4.9109,-57.1765
25493.7759,4.8902,-57.1161,4.8902,-57.1161
25505.4918,4.8696,-57.0560,4.8696,-57.0560
25517.2077,4.8491,-56.9962,4.8491,-56.9962
25528.9236,4.8288,-56.9367,4.8288,-56.9367
25540.6395,4.8086,-56.8774,4.8086,-56.8774
25552.3554,4.7885,-56.8183,4.7885,-56.8183
25564.0713,4.7685,-56.7595,4.7685,-56.7595
25575.7872,4.7487,-56.7010,4.7487,-56.7010
25587.5031,4.7290,-56.6427,4.7290,-56.6427
25599.2189,4.7094,-56.5846,4.7094,-56.5846
25610.9348,4.6899,-56.5268,4.6899,-56.5268
25622.6507,4.6706,-56.4692,4.6706,-56.4692
25634.3666,4.6514,-56.4118,4.6514,-56.4118
25646.0825,4.6322,-56.3547,4.6322,-56.3547
25657.7984,4.6132,-56.2978,4.6132,-56.2978
25669.5143,4.5943,-56.2412,4.5943,-56.2412
25681.2302,4.5755,-56.1847,4.5755,-56.1847
25692.9461,4.5568,-56.1285,4.5568,-56.1285
25704.6619,4.5382,-56.0724,4.5382,-56.0724
25716.3778,4.5198,-56.0166,4.5198,-56.0166
25728.0937,4.5014,-55.9610,4.5014,-55.9610
25739.8096,4.4831,-55.9057,4.4831,-55.9057
25751.5255,4.4649,-55.8505,4.4649,-55.8505
25763.2414,4.4469,-55.7955,4.4469,-55.7955
25774.9573,4.4289,-55.7407,4.4289,-55.7407
25786.6732,4.4110,-55.6861,4.4110,-55.6861
25798.3891,4.3932,-55.6317,4.3932,-55.6317
25810.1050,4.3756,-55.5775,4.3756,-55.5775
25821.8208,4.3580,-55.5235,4.3580,-55.5235
25833.5367,4.3405,-55.4697,4.3405,-55.4697
25845.2526,4.3231,-55.4161,4.3231,-55.4161
25856.9685,4.3058,-55.3626,4.3058,-55.3626
25868.6844,4.2886,-55.3093,4.2886,-55.3093
25880.4003,4.2714,-55.2563,4.2714,-55.2563
25892.1162,4.2544,-55.2034,4.2544,-55.2034
25903.8321,4.2374,-55.1506,4.2374,-55.1506
25915.5480,4.2206,-55.0981,4.2206,-55.0981
25927.2639,4.2038,-55.0457,4.2038,-55.0457
25938.9797,4.1871,-54.9935,4.1871,-54.9935
25950.6956,4.1705,-54.9414,4.1705,-54.9414
25962.4115,4.1539,-54.8895,4.1539,-54.8895
25974.1274,4.1375,-54.8378,4.1375,-54.8378
25985.8433,4.1211,-54.7862,4.1211,-54.7862
25997.5592,4.1048,-54.7349,4.1048,-54.7349
26009.2751,4.0886,-54.6836,4.0886,-54.6836
26020.9910,4.0725,-54.6325,4.0725,-54.6325
26032.7069,4.0564,-54.5816,4.0564,-54.5816
26044.4227,4.0404,-54.5309,4.0404,-54.5309
26056.1386,4.0245,-54.4802,4.0245,-54.4802
26067.8545,4.0087,-54.4298,4.0087,-54.4298
26079.5704,3.9929,-54.3795,3.9929,-54.3795
26091.2863,3.9773,-54.3293,3.9773,-54.3293
26103.0022,3.9617,-54.2793,3.9617,-54.2793
26114.7181,3.9461,-54.2294,3.9461,-54.2294
26126.4340,3.9307,-54.1797,3.9307,-54.1797
26138.1499,3.9153,-54.1301,3.9153,-54.1301
26149.8658,3.8999,-54.0806,3.8999,-54.0806
26161.5816,3.8847,-54.0313,3.8847,-54.0313
26173.2975,3.8695,-53.9821,3.8695,-53.9821
26185.0134,3.8544,-53.9331,3.8544,-53.9331
26196.7293,3.8393,-53.8842,3.8393,-53.8842
26208.4452,3.8244,-53.8354,3.8244,-53.8354
26220.1611,3.8094,-53.7868,3.8094,-53.7868
26231.8770,3.7946,-53.7383,3.7946,-53.7383
26243.5929,3.7798,-53.6899,3.7798,-53.6899
26255.3088,3.7651,-53.6417,3.7651,-53.6417
26267.0247,3.7504,-53.5936,3.7504,-53.5936
26278.7405,3.7359,-53.5456,3.7359,-53.5456
26290.4564,3.7213,-53.4977,3.7213,-53.4977
26302.1723,3.7069,-53.4500,3.7069,-53.4500
26313.8882,3.6924,-53.4024,3.6924,-53.4024
26325.6041,3.6781,-53.3549,3.6781,-53.3549
26337.3200,3.6638,-53.3075,3.6638,-53.3075
26349.0359,3.6496,-53.2602,3.6496,-53.2602
26360.7518,3.6354,-53.2131,3.6354,-53.2131
26372.4677,3.6213,-53.1661,3.6213,-53.1661
26384.1835,3.6073,-53.1192,3.6073,-53.1192
26395.8994,3.5933,-53.0724,3.5933,-53.0724
26407.6153,3.5793,-53.0257,3.5793,-53.0257
26419.3312,3.5655,-52.9791,3.5655,-52.9791
26431.0471,3.5516,-52.9327,3.5516,-52.9327
26442.7630,3.5379,-52.8864,3.5379,-52.8864
26454.4789,3.5242,-52.8401,3.5242,-52.8401
26466.1948,3.5105,-52.7940,3.5105,-52.7940
26477.9107,3.4969,-52.7480,3.4969,-52.7480
26489.6266,3.4834,-52.7021,3.4834,-52.7021
26501.3424,3.4699,-52.6563,3.4699,-52.6563
26513.0583,3.4565,-52.6106,3.4565,-52.6106
26524.7742,3.4431,-52.5650,3.4431,-52.5650
26536.4901,3.4297,-52.5195,3.4297,-52.5195
26548.2060,3.4165,-52.4741,3.4165,-52.4741
26559.9219,3.4032,-52.4289,3.4032,-52.4289
26571.6378,3.3900,-52.3837,3.3900,-52.3837
26583.3537,3.3769,-52.3386,3.3769,-52.3386
26595.0696,3.3638,-52.2936,3.3638,-52.2936
26606.7855,3.3508,-52.2487,3.3508,-52.2487
26618.5013,3.3378,-52.2039,3.3378,-52.2039
26630.2172,3.3249,-52.1593,3.3249,-52.1593
26641.9331,3.3120,-52.1147,3.3120,-52.1147
26653.6490,3.2992,-52.0702,3.2992,-52.0702
26665.3649,3.2864,-52.0258,3.2864,-52.0258
26677.0808,3.2737,-51.9815,3.2737,-51.9815
26688.7967,3.2610,-51.9372,3.2610,-51.9372
26700.5126,3.2483,-51.8931,3.2483,-51.8931
26712.2285,3.2357,-51.8491,3.2357,-51.8491
26723.9443,3.2232,-51.8051,3.2232,-51.8051
26735.6602,3.2107,-51.7613,3.2107,-51.7613
26747.3761,3.1982,-51.7175,3.1982,-51.7175
26759.0920,3.1858,-51.6738,3.1858,-51.6738
26770.8079,3.1734,-51.6303,3.1734,-51.6303
26782.5238,3.1611,-51.5868,3.1611,-51.5868
26794.2397,3.1488,-51.5434,3.1488,-51.5434
26805.9556,3.1366,-51.5000,3.1366,-51.5000
26817.6715,3.1244,-51.4568,3.1244,-51.4568
26829.3874,3.1123,-51.4136,3.1123,-51.4136
26841.1032,3.1001,-51.3705,3.1001,-51.3705
26852.8191,3.0881,-51.3275,3.0881,-51.3275
26864.5350,3.0761,-51.2846,3.0761,-51.2846
26876.2509,3.0641,-51.2418,3.0641,-51.2418
26887.9668,3.0521,-51.1991,3.0521,-51.1991
26899.6827,3.0402,-51.1564,3.0402,-51.1564
26911.3986,3.0284,-51.1138,3.0284,-51.1138
26923.1145,3.0166,-51.0713,3.0166,-51.0713
26934.8304,3.0048,-51.0289,3.0048,-51.0289
26946.5463,2.9930,-50.9865,2.9930,-50.9865
26958.2621,2.9813,-50.9443,2.9813,-50.9443
26969.9780,2.9697,-50.9020,2.9697,-50.9020
26981.6939,2.9581,-50.8599,2.9581,-50.8599
26993.4098,2.9465,-50.8179,2.9465,-50.8179
27005.1257,2.9350,-50.7759,2.9350,-50.7759
27016.8416,2.9235,-50.7340,2.9235,-50.7340
27028.5575,2.9120,-50.6922,2.9120,-50.6922
27040.2734,2.9006,-50.6505,2.9006,-50.6505
27051.9893,2.8892,-50.6088,2.8892,-50.6088
27063.7052,2.8778,-50.5672,2.8778,-50.5672
27075.4210,2.8665,-50.5257,2.8665,-50.5257
27087.1369,2.8552,-50.4842,2.8552,-50.4842
27098.8528,2.8440,-50.4428,2.8440,-50.4428
27110.5687,2.8328,-50.4015,2.8328,-50.4015
27122.2846,2.8216,-50.3603,2.8216,-50.3603
27134.0005,2.8105,-50.3191,2.8105,-50.3191
27145.7164,2.7994,-50.2780,2.7994,-50.2780
27157.4323,2.7883,-50.2370,2.7883,-50.2370
27169.1482,2.7773,-50.1960,2.7773,-50.1960
27180.8640,2.7663,-50.1551,2.7663,-50.1551
27192.5799,2.7554,-50.1143,2.7554,-50.1143
27204.2958,2.7445,-50.0735,2.7445,-50.0735
27216.0117,2.7336,-50.0328,2.7336,-50.0328
27227.7276,2.7227,-49.9922,2.7227,-49.9922
27239.4435,2.7119,-49.9516,2.7119,-49.9516
27251.1594,2.7011,-49.9111,2.7011,-49.9111
27262.8753,2.6904,-49.8707,2.6904,-49.8707
27274.5912,2.6797,-49.8303,2.6797,-49.8303
27286.3071,2.6690,-49.7900,2.6690,-49.7900
27298.0229,2.6583,-49.7497,2.6583,-49.7497
27309.7388,2.6477,-49.7095,2.6477,-49.7095
27321.4547,2.6371,-49.6694,2.6371,-49.6694
27333.1706,2.6266,-49.6293,2.6266,-49.6293
27344.8865,2.6160,-49.5893,2.6160,-49.5893
27356.6024,2.6056,-49.5494,2.6056,-49.5494
27368.3183,2.5951,-49.5095,2.5951,-49.5095
27380.0342,2.5847,-49.4697,2.5847,-49.4697
27391.7501,2.5743,-49.4300,2.5743,-49.4300
27403.4660,2.5639,-49.3903,2.5639,-49.3903
27415.1818,2.5536,-49.3506,2.5536,-49.3506
27426.8977,2.5433,-49.3111,2.5433,-49.3111
27438.6136,2.5330,-49.2715,2.5330,-49.2715
27450.3295,2.5228,-49.2321,2.5228,-49.2321
27462.0454,2.5126,-49.1927,2.5126,-49.1927
27473.7613,2.5024,-49.1533,2.5024,-49.1533
27485.4772,2.4922,-49.1140,2.4922,-49.1140
27497.1931,2.4821,-49.0748,2.4821,-49.0748
27508.9090,2.4720,-49.0356,2.4720,-49.0356
27520.6248,2.4620,-48.9965,2.4620,-48.9965
27532.3407,2.4519,-48.9574,2.4519,-48.9574
27544.0566,2.4419,-48.9184,2.4419,-48.9184
27555.7725,2.4320,-48.8794,2.4320,-48.8794
27567.4884,2.4220,-48.8405,2.4220,-48.8405
27579.2043,2.4121,-48.8017,2.4121,-48.8017
27590.9202,2.4022,-48.7629,2.4022,-48.7629
27602.6361,2.3923,-48.7241,2.3923,-48.7241
27614.3520,2.3825,-48.6854,2.3825,-48.6854
27626.0679,2.3727,-48.6468,2.3727,-48.6468
27637.7837,2.3629,-48.6082,2.3629,-48.6082
27649.4996,2.3532,-48.5697,2.3532,-48.5697
27661.2155,2.3435,-48.5312,2.3435,-48.5312
27672.9314,2.3338,-48.4928,2.3338,-48.4928
27684.6473,2.3241,-48.4544,2.3241,-48.4544
27696.3632,2.3145,-48.4161,2.3145,-48.4161
27708.0791,2.3048,-48.3778,2.3048,-48.3778
27719.7950,2.2953,-48.3395,2.2953,-48.3395
27731.5109,2.2857,-48.3014,2.2857,-48.3014
27743.2268,2.2762,-48.2632,2.2762,-48.2632
27754.9426,2.2667,-48.2252,2.2667,-48.2252
27766.6585,2.2572,-48.1871,2.2572,-48.1871
27778.3744,2.2477,-48.1492,2.2477,-48.1492
27790.0903,2.2383,-48.1112,2.2383,-48.1112
27801.8062,2.2289,-48.0734,2.2289,-48.0734
27813.5221,2.2195,-48.0355,2.2195,-48.0355
27825.2380,2.2101,-47.9977,2.2101,-47.9977
27836.9539,2.2008,-47.9600,2.2008,-47.9600
27848.6698,2.1915,-47.9223,2.1915,-47.9223
27860.3856,2.1822,-47.8846,2.1822,-47.8846
27872.1015,2.1730,-47.8470,2.1730,-47.8470
27883.8174,2.1638,-47.8095,2.1638,-47.8095
27895.5333,2.1545,-47.7720,2.1545,-47.7720
27907.2492,2.1454,-47.7345,2.1454,-47.7345
27918.9651,2.1362,-47.6971,2.1362,-47.6971
27930.6810,2.1271,-47.6597,2.1271,-47.6597
27942.3969,2.1180,-47.6224,2.1180,-47.6224
27954.1128,2.1089,-47.5851,2.1089,-47.5851
27965.8287,2.0998,-47.5478,2.0998,-47.5478
27977.5445,2.0908,-47.5107,2.0908,-47.5107
27989.2604,2.0818,-47.4735,2.0818,-47.4735
28000.9763,2.0728,-47.4364,2.0728,-47.4364
28012.6922,2.0638,-47.3993,2.0638,-47.3993
28024.4081,2.0549,-47.3623,2.0549,-47.3623
28036.1240,2.0460,-47.3253,2.0460,-47.3253
28047.8399,2.0371,-47.2884,2.0371,-47.2884
28059.5558,2.0282,-47.2515,2.0282,-47.2515
28071.2717,2.0194,-47.2146,2.0194,-47.2146
28082.9876,2.0105,-47.1779,2.0105,-47.1779
28094.7034,2.0017,-47.1411,2.0017,-47.1411
28106.4193,1.9929,-47.1044,1.9929,-47.1044
28118.1352,1.9842,-47.0677,1.9842,-47.0677
28129.8511,1.9754,-47.0310,1.9754,-47.0310
28141.5670,1.9667,-46.9944,1.9667,-46.9944
28153.2829,1.9580,-46.9579,1.9580,-46.9579
28164.9988,1.9494,-46.9214,1.9494,-46.9214
28176.7147,1.9407,-46.8849,1.9407,-46.8849
28188.4306,1.9321,-46.8484,1.9321,-46.8484
28200.1464,1.9235,-46.8120,1.9235,-46.8120
28211.8623,1.9149,-46.7757,1.9149,-46.7757
28223.5782,1.9063,-46.7393,1.9063,-46.7393
28235.2941,1.8978,-46.7030,1.8978,-46.7030
28247.0100,1.8893,-46.6668,1.8893,-46.6668
28258.7259,1.8808,-46.6306,1.8808,-46.6306
28270.4418,1.8723,-46.5944,1.8723,-46.5944
28282.1577,1.8638,-46.5583,1.8638,-46.5583
28293.8736,1.8554,-46.5222,1.8554,-46.5222
28305.5895,1.8470,-46.4861,1.8470,-46.4861
28317.3053,1.8386,-46.4501,1.8386,-46.4501
28329.0212,1.8302,-46.4142,1.8302,-46.4142
28340.7371,1.8219,-46.3782,1.8219,-46.3782
28352.4530,1.8135,-46.3423,1.8135,-46.3423
28364.1689,1.8052,-46.3064,1.8052,-46.3064
28375.8848,1.7969,-46.2706,1.7969,-46.2706
28387.6007,1.7886,-46.2348,1.7886,-46.2348
28399.3166,1.7804,-46.1991,1.7804,-46.1991
28411.0325,1.7721,-46.1633,1.7721,-46.1633
28422.7484,1.7639,-46.1276,1.7639,-46.1276
28434.4642,1.7557,-46.0920,1.7557,-46.0920
28446.1801,1.7476,-46.0564,1.7476,-46.0564
28457.8960,1.7394,-46.0208,1.7394,-46.0208
28469.6119,1.7313,-45.9852,1.7313,-45.9852
28481.3278,1.7232,-45.9497,1.7232,-45.9497
28493.0437,1.7151,-45.9143,1.7151,-45.9143
28504.7596,1.7070,-45.8788,1.7070,-45.8788
28516.4755,1.6989,-45.8434,1.6989,-45.8434
28528.1914,1.6909,-45.8081,1.6909,-45.8081
28539.9072,1.6829,-45.7727,1.6829,-45.7727
28551.6231,1.6748,-45.7374,1.6748,-45.7374
28563.3390,1.6669,-45.7021,1.6669,-45.7021
28575.0549,1.6589,-45.6669,1.6589,-45.6669
28586.7708,1.6510,-45.6317,1.6510,-45.6317
28598.4867,1.6430,-45.5965,1.6430,-45.5965
28610.2026,1.6351,-45.5614,1.6351,-45.5614
28621.9185,1.6272,-45.5263,1.6272,-45.5263
28633.6344,1.6193,-45.4912,1.6193,-45.4912
28645.3503,1.6115,-45.4562,1.6115,-45.4562
28657.0661,1.6037,-45.4212,1.6037,-45.4212
28668.7820,1.5958,-45.3862,1.5958,-45.3862
28680.4979,1.5880,-45.3513,1.5880,-45.3513
28692.2138,1.5802,-45.3164,1.5802,-45.3164
28703.9297,1.5725,-45.2815,1.5725,-45.2815
28715.6456,1.5647,-45.2466,1.5647,-45.2466
28727.3615,1.5570,-45.2118,1.5570,-45.2118
28739.0774,1.5493,-45.1770,1.5493,-45.1770
28750.7933,1.5416,-45.1423,1.5416,-45.1423
28762.5092,1.5339,-45.1076,1.5339,-45.1076
28774.2250,1.5262,-45.0729,1.5262,-45.0729
28785.9409,1.5186,-45.0382,1.5186,-45.0382
28797.6568,1.5110,-45.0036,1.5110,-45.0036
28809.3727,1.5034,-44.9690,1.5034,-44.9690
28821.0886,1.4958,-44.9344,1.4958,-44.9344
28832.8045,1.4882,-44.8999,1.4882,-44.8999
28844.5204,1.4806,-44.8654,1.4806,-44.8654
28856.2363,1.4731,-44.8309,1.4731,-44.8309
28867.9522,1.4656,-44.7964,1.4656,-44.7964
28879.6680,1.4581,-44.7620,1.4581,-44.7620
28891.3839,1.4506,-44.7276,1.4506,-44.7276
28903.0998,1.4431,-44.6933,1.4431,-44.6933
28914.8157,1.4356,-44.6590,1.4356,-44.6590
28926.5316,1.4282,-44.6247,1.4282,-44.6247
28938.2475,1.4208,-44.5904,1.4208,-44.5904
28949.9634,1.4134,-44.5561,1.4134,-44.5561
28961.6793,1.4060,-44.5219,1.4060,-44.5219
28973.3952,1.3986,-44.4877,1.3986,-44.4877
28985.1111,1.3912,-44.4536,1.3912,-44.4536
28996.8269,1.3839,-44.4195,1.3839,-44.4195
29008.5428,1.3766,-44.3854,1.3766,-44.3854
29020.2587,1.3692,-44.3513,1.3692,-44.3513
29031.9746,1.3619,-44.3172,1.3619,-44.3172
29043.6905,1.3547,-44.2832,1.3547,-44.2832
29055.4064,1.3474,-44.2492,1.3474,-44.2492
29067.1223,1.3401,-44.2153,1.3401,-44.2153
29078.8382,1.3329,-44.1813,1.3329,-44.1813
29090.5541,1.3257,-44.1474,1.3257,-44.1474
29102.2700,1.3185,-44.1135,1.3185,-44.1135
29113.9858,1.3113,-44.0797,1.3113,-44.0797
29125.7017,1.3041,-44.0458,1.3041,-44.0458
29137.4176,1.2970,-44.0121,1.2970,-44.0121
29149.1335,1.2898,-43.9783,1.2898,-43.9783
29160.8494,1.2827,-43.9445,1.2827,-43.9445
29172.5653,1.2756,-43.9108,1.2756,-43.9108
29184.2812,1.2685,-43.8771,1.2685,-43.8771
29195.9971,1.2614,-43.8434,1.2614,-43.8434
29207.7130,1.2543,-43.8098,1.2543,-43.8098
29219.4289,1.2473,-43.7762,1.2473,-43.7762
29231.1447,1.2402,-43.7426,1.2402,-43.7426
29242.8606,1.2332,-43.7090,1.2332,-43.7090
29254.5765,1.2262,-43.6755,1.2262,-43.6755
29266.2924,1.2192,-43.6420,1.2192,-43.6420
29278.0083,1.2122,-43.6085,1.2122,-43.6085
29289.7242,1.2053,-43.5750,1.2053,-43.5750
29301.4401,1.1983,-43.5416,1.1983,-43.5416
29313.1560,1.1914,-43.5082,1.1914,-43.5082
29324.8719,1.1845,-43.4748,1.1845,-43.4748
29336.5877,1.1776,-43.4414,1.1776,-43.4414
29348.3036,1.1707,-43.4081,1.1707,-43.4081
29360.0195,1.1638,-43.3748,1.1638,-43.3748
29371.7354,1.1569,-43.3415,1.1569,-43.3415
29383.4513,1.1501,-43.3082,1.1501,-43.3082
29395.1672,1.1432,-43.2750,1.1432,-43.2750
29406.8831,1.1364,-43.2417,1.1364,-43.2417
29418.5990,1.1296,-43.2086,1.1296,-43.2086
29430.3149,1.1228,-43.1754,1.1228,-43.1754
29442.0308,1.1160,-43.1422,1.1160,-43.1422
29453.7466,1.1093,-43.1091,1.1093,-43.1091
29465.4625,1.1025,-43.0760,1.1025,-43.0760
29477.1784,1.0958,-43.0429,1.0958,-43.0429
29488.8943,1.0890,-43.0099,1.0890,-43.0099
29500.6102,1.0823,-42.9769,1.0823,-42.9769
29512.3261,1.0756,-42.9439,1.0756,-42.9439
29524.0420,1.0689,-42.9109,1.0689,-42.9109
29535.7579,1.0623,-42.8779,1.0623,-42.8779
29547.4738,1.0556,-42.8450,1.0556,-42.8450
29559.1897,1.0490,-42.8121,1.0490,-42.8121
29570.9055,1.0423,-42.7792,1.0423,-42.7792
29582.6214,1.0357,-42.7463,1.0357,-42.7463
29594.3373,1.0291,-42.7135,1.0291,-42.7135
29606.0532,1.0225,-42.6807,1.0225,-42.6807
29617.7691,1.0159,-42.6479,1.0159,-42.6479
29629.4850,1.0094,-42.6151,1.0094,-42.6151
29641.2009,1.0028,-42.5823,1.0028,-42.5823
29652.9168,0.9963,-42.5496,0.9963,-42.5496
29664.6327,0.9898,-42.5169,0.9898,-42.5169
29676.3485,0.9832,-42.4842,0.9832,-42.4842
29688.0644,0.9767,-42.4515,0.9767,-42.4515
29699.7803,0.9703,-42.4189,0.9703,-42.4189
29711.4962,0.9638,-42.3862,0.9638,-42.3862
29723.2121,0.9573,-42.3536,0.9573,-42.3536
29734.9280,0.9509,-42.3210,0.9509,-42.3210
29746.6439,0.9444,-42.2885,0.9444,-42.2885
29758.3598,0.9380,-42.2560,0.9380,-42.2560
29770.0757,0.9316,-42.2234,0.9316,-42.2234
29781.7916,0.9252,-42.1909,0.9252,-42.1909
29793.5074,0.9188,-42.1585,0.9188,-42.1585
29805.2233,0.9124,-42.1260,0.9124,-42.1260
29816.9392,0.9061,-42.0936,0.9061,-42.0936
29828.6551,0.8997,-42.0612,0.8997,-42.0612
29840.3710,0.8934,-42.0288,0.8934,-42.0288
29852.0869,0.8871,-41.9964,0.8871,-41.9964
29863.8028,0.8807,-41.9640,0.8807,-41.9640
29875.5187,0.8744,-41.9317,0.8744,-41.9317
29887.2346,0.8682,-41.8994,0.8682,-41.8994
29898.9505,0.8619,-41.8671,0.8619,-41.8671
29910.6663,0.8556,-41.8349,0.8556,-41.8349
29922.3822,0.8494,-41.8026,0.8494,-41.8026
29934.0981,0.8431,-41.7704,0.8431,-41.7704
29945.8140,0.8369,-41.7382,0.8369,-41.7382
29957.5299,0.8307,-41.7060,0.8307,-41.7060
29969.2458,0.8245,-41.6738,0.8245,-41.6738
29980.9617,0.8183,-41.6416,0.8183,-41.6416
29992.6776,0.8121,-41.6095,0.8121,-41.6095
30004.3935,0.8059,-41.5774,0.8059,-41.5774
30016.1093,0.7998,-41.5453,0.7998,-41.5453
30027.8252,0.7936,-41.5133,0.7936,-41.5133
30039.5411,0.7875,-41.4812,0.7875,-41.4812
30051.2570,0.7814,-41.4492,0.7814,-41.4492
30062.9729,0.7752,-41.4172,0.7752,-41.4172
30074.6888,0.7691,-41.3851,0.7691,-41.3851
30086.4047,0.7631,-41.3532,0.7631,-41.3532
30098.1206,0.7570,-41.3212,0.7570,-41.3212
30109.8365,0.7509,-41.2893,0.7509,-41.2893
30121.5524,0.7449,-41.2574,0.7449,-41.2574
30133.2682,0.7388,-41.2255,0.7388,-41.2255
30144.9841,0.7328,-41.1936,0.7328,-41.1936
30156.7000,0.7268,-41.1617,0.7268,-41.1617
30168.4159,0.7207,-41.1299,0.7207,-41.1299
30180.1318,0.7148,-41.0980,0.7148,-41.0980
30191.8477,0.7088,-41.0662,0.7088,-41.0662
30203.5636,0.7028,-41.0344,0.7028,-41.0344
30215.2795,0.6968,-41.0027,0.6968,-41.0027
30226.9954,0.6909,-40.9709,0.6909,-40.9709
30238.7113,0.6849,-40.9392,0.6849,-40.9392
30250.4271,0.6790,-40.9075,0.6790,-40.9075
30262.1430,0.6731,-40.8758,0.6731,-40.8758
30273.8589,0.6672,-40.8441,0.6672,-40.8441
30285.5748,0.6613,-40.8124,0.6613,-40.8124
30297.2907,0.6554,-40.7808,0.6554,-40.7808
30309.0066,0.6495,-40.7491,0.6495,-40.7491
30320.7225,0.6436,-40.7175,0.6436,-40.7175
30332.4384,0.6378,-40.6859,0.6378,-40.6859
30344.1543,0.6319,-40.6544,0.6319,-40.6544
30355.8701,0.6261,-40.6228,0.6261,-40.6228
30367.5860,0.6203,-40.5913,0.6203,-40.5913
30379.3019,0.6145,-40.5598,0.6145,-40.5598
30391.0178,0.6087,-40.5283,0.6087,-40.5283
30402.7337,0.6029,-40.4968,0.6029,-40.4968
30414.4496,0.5971,-40.4653,0.5971,-40.4653
30426.1655,0.5913,-40.4338,0.5913,-40.4338
30437.8814,0.5855,-40.4024,0.5855,-40.4024
30449.5973,0.5798,-40.3710,0.5798,-40.3710
30461.3132,0.5741,-40.3396,0.5741,-40.3396
30473.0290,0.5683,-40.3082,0.5683,-40.3082
30484.7449,0.5626,-40.2768,0.5626,-40.2768
30496.4608,0.5569,-40.2455,0.5569,-40.2455
30508.1767,0.5512,-40.2141,0.5512,-40.2141
30519.8926,0.5455,-40.1828,0.5455,-40.1828
30531.6085,0.5398,-40.1515,0.5398,-40.1515
30543.3244,0.5342,-40.1202,0.5342,-40.1202
30555.0403,0.5285,-40.0889,0.5285,-40.0889
30566.7562,0.5229,-40.0577,0.5229,-40.0577
30578.4721,0.5172,-40.0264,0.5172,-40.0264
30590.1879,0.5116,-39.9952,0.5116,-39.9952
30601.9038,0.5060,-39.9640,0.5060,-39.9640
30613.6197,0.5004,-39.9328,0.5004,-39.9328
30625.3356,0.4948,-39.9017,0.4948,-39.9017
30637.0515,0.4892,-39.8705,0.4892,-39.8705
30648.7674,0.4836,-39.8393,0.4836,-39.8393
30660.4833,0.4780,-39.8082,0.4780,-39.8082
30672.1992,0.4725,-39.7771,0.4725,-39.7771
30683.9151,0.4669,-39.7460,0.4669,-39.7460
30695.6309,0.4614,-39.7149,0.4614,-39.7149
30707.3468,0.4559,-39.6839,0.4559,-39.6839
30719.0627,0.4503,-39.6528,0.4503,-39.6528
30730.7786,0.4448,-39.6218,0.4448,-39.6218
30742.4945,0.4393,-39.5908,0.4393,-39.5908
30754.2104,0.4339,-39.5598,0.4339,-39.5598
30765.9263,0.4284,-39.5288,0.4284,-39.5288
30777.6422,0.4229,-39.4978,0.4229,-39.4978
30789.3581,0.4174,-39.4669,0.4174,-39.4669
30801.0740,0.4120,-39.4359,0.4120,-39.4359
30812.7898,0.4065,-39.4050,0.4065,-39.4050
30824.5057,0.4011,-39.3741,0.4011,-39.3741
30836.2216,0.3957,-39.3432,0.3957,-39.3432
30847.9375,0.3903,-39.3123,0.3903,-39.3123
30859.6534,0.3849,-39.2814,0.3849,-39.2814
30871.3693,0.3795,-39.2506,0.3795,-39.2506
30883.0852,0.3741,-39.2198,0.3741,-39.2198
30894.8011,0.3687,-39.1889,0.3687,-39.1889
30906.5170,0.3633,-39.1581,0.3633,-39.1581
30918.2329,0.3580,-39.1274,0.3580,-39.1274
30929.9487,0.3526,-39.0965,0.3526,-39.0965
30941.6646,0.3473,-39.0658,0.3473,-39.0658
30953.3805,0.3420,-39.0350,0.3420,-39.0350
30965.0964,0.3366,-39.0043,0.3366,-39.0043
30976.8123,0.3313,-38.9736,0.3313,-38.9736
30988.5282,0.3260,-38.9429,0.3260,-38.9429
31000.2441,0.3207,-38.9122,0.3207,-38.9122
31011.9600,0.3155,-38.8815,0.3155,-38.8815
31023.6759,0.3102,-38.8509,0.3102,-38.8509
31035.3918,0.3049,-38.8202,0.3049,-38.8202
31047.1076,0.2997,-38.7896,0.2997,-38.7896
31058.8235,0.2944,-38.7589,0.2944,-38.7589
31070.5394,0.2892,-38.7283,0.2892,-38.7283
31082.2553,0.2839,-38.6977,0.2839,-38.6977
31093.9712,0.2787,-38.6672,0.2787,-38.6672
31105.6871,0.2735,-38.6366,0.2735,-38.6366
31117.4030,0.2683,-38.6060,0.2683,-38.6060
31129.1189,0.2631,-38.5755,0.2631,-38.5755
31140.8348,0.2579,-38.5450,0.2579,-38.5450
31152.5506,0.2527,-38.5145,0.2527,-38.5145
31164.2665,0.2476,-38.4840,0.2476,-38.4840
31175.9824,0.2424,-38.4535,0.2424,-38.4535
31187.6983,0.2373,-38.4231,0.2373,-38.4231
31199.4142,0.2321,-38.3926,0.2321,-38.3926
31211.1301,0.2270,-38.3621,0.2270,-38.3621
31222.8460,0.2219,-38.3317,0.2219,-38.3317
31234.5619,0.2167,-38.3013,0.2167,-38.3013
31246.2778,0.2116,-38.2709,0.2116,-38.2709
31257.9937,0.2065,-38.2405,0.2065,-38.2405
31269.7095,0.2014,-38.2101,0.2014,-38.2101
31281.4254,0.1964,-38.1798,0.1964,-38.1798
31293.1413,0.1913,-38.1494,0.1913,-38.1494
31304.8572,0.1862,-38.1191,0.1862,-38.1191
31316.5731,0.1812,-38.0888,0.1812,-38.0888
31328.2890,0.1761,-38.0584,0.1761,-38.0584
31340.0049,0.1711,-38.0281,0.1711,-38.0281
31351.7208,0.1660,-37.9979,0.1660,-37.9979
31363.4367,0.1610,-37.9676,0.1610,-37.9676
31375.1526,0.1560,-37.9373,0.1560,-37.9373
31386.8684,0.1510,-37.9071,0.1510,-37.9071
31398.5843,0.1460,-37.8769,0.1460,-37.8769
31410.3002,0.1410,-37.8466,0.1410,-37.8466
31422.0161,0.1360,-37.8164,0.1360,-37.8164
31433.7320,0.1311,-37.7862,0.1311,-37.7862
31445.4479,0.1261,-37.7560,0.1261,-37.7560
31457.1638,0.1211,-37.7258,0.1211,-37.7258
31468.8797,0.1162,-37.6957,0.1162,-37.6957
31480.5956,0.1113,-37.6656,0.1113,-37.6656
31492.3114,0.1063,-37.6354,0.1063,-37.6354
31504.0273,0.1014,-37.6053,0.1014,-37.6053
31515.7432,0.0965,-37.5752,0.0965,-37.5752
31527.4591,0.0916,-37.5451,0.0916,-37.5451
31539.1750,0.0867,-37.5150,0.0867,-37.5150
31550.8909,0.0818,-37.4850,0.0818,-37.4850
31562.6068,0.0769,-37.4549,0.0769,-37.4549
31574.3227,0.0720,-37.4249,0.0720,-37.4249
31586.0386,0.0672,-37.3948,0.0672,-37.3948
31597.7545,0.0623,-37.3648,0.0623,-37.3648
31609.4703,0.0574,-37.3348,0.0574,-37.3348
31621.1862,0.0526,-37.3048,0.0526,-37.3048
31632.9021,0.0478,-37.2748,0.0478,-37.2748
31644.6180,0.0429,-37.2448,0.0429,-37.2448
31656.3339,0.0381,-37.2149,0.0381,-37.2149
31668.0498,0.0333,-37.1849,0.0333,-37.1849
31679.7657,0.0285,-37.1550,0.0285,-37.1550
31691.4816,0.0237,-37.1250,0.0237,-37.1250
31703.1975,0.0189,-37.0951,0.0189,-37.0951
31714.9134,0.0141,-37.0652,0.0141,-37.0652
31726.6292,0.0094,-37.0353,0.0094,-37.0353
31738.3451,0.0046,-37.0055,0.0046,-37.0055
31750.0610,-0.0002,-36.9756,-0.0002,-36.9756
31761.7769,-0.0049,-36.9457,-0.0049,-36.9457
31773.4928,-0.0097,-36.9159,-0.0097,-36.9159
31785.2087,-0.0144,-36.8860,-0.0144,-36.8860
31796.9246,-0.0191,-36.8562,-0.0191,-36.8562
31808.6405,-0.0238,-36.8264,-0.0238,-36.8264
31820.3564,-0.0286,-36.7966,-0.0286,-36.7966
31832.0722,-0.0333,-36.7668,-0.0333,-36.7668
31843.7881,-0.0380,-36.7370,-0.0380,-36.7370
31855.5040,-0.0426,-36.7072,-0.0426,-36.7072
31867.2199,-0.0473,-36.6775,-0.0473,-36.6775
31878.9358,-0.0520,-36.6478,-0.0520,-36.6478
31890.6517,-0.0567,-36.6180,-0.0567,-36.6180
31902.3676,-0.0613,-36.5883,-0.0613,-36.5883
31914.0835,-0.0660,-36.5586,-0.0660,-36.5586
31925.7994,-0.0706,-36.5289,-0.0706,-36.5289
31937.5153,-0.0753,-36.4992,-0.0753,-36.4992
31949.2311,-0.0799,-36.4695,-0.0799,-36.4695
31960.9470,-0.0845,-36.4398,-0.0845,-36.4398
31972.6629,-0.0891,-36.4102,-0.0891,-36.4102
31984.3788,-0.0937,-36.3806,-0.0937,-36.3806
31996.0947,-0.0983,-36.3509,-0.0983,-36.3509
32007.8106,-0.1029,-36.3213,-0.1029,-36.3213
32019.5265,-0.1075,-36.2917,-0.1075,-36.2917
32031.2424,-0.1121,-36.2621,-0.1121,-36.2621
32042.9583,-0.1167,-36.2325,-0.1167,-36.2325
32054.6742,-0.1212,-36.2029,-0.1212,-36.2029
32066.3900,-0.1258,-36.1733,-0.1258,-36.1733
32078.1059,-0.1303,-36.1438,-0.1303,-36.1438
32089.8218,-0.1349,-36.1142,-0.1349,-36.1142
32101.5377,-0.1394,-36.0847,-0.1394,-36.0847
32113.2536,-0.1439,-36.0552,-0.1439,-36.0552
32124.9695,-0.1485,-36.0256,-0.1485,-36.0256
32136.6854,-0.1530,-35.9961,-0.1530,-35.9961
32148.4013,-0.1575,-35.9666,-0.1575,-35.9666
32160.1172,-0.1620,-35.9371,-0.1620,-35.9371
32171.8330,-0.1665,-35.9077,-0.1665,-35.9077
32183.5489,-0.1709,-35.8782,-0.1709,-35.8782
32195.2648,-0.1754,-35.8487,-0.1754,-35.8487
32206.9807,-0.1799,-35.8193,-0.1799,-35.8193
32218.6966,-0.1844,-35.7899,-0.1844,-35.7899
32230.4125,-0.1888,-35.7604,-0.1888,-35.7604
32242.1284,-0.1933,-35.7310,-0.1933,-35.7310
32253.8443,-0.1977,-35.7016,-0.1977,-35.7016
32265.5602,-0.2021,-35.6722,-0.2021,-35.6722
32277.2761,-0.2066,-35.6429,-0.2066,-35.6429
32288.9919,-0.2110,-35.6135,-0.2110,-35.6135
32300.7078,-0.2154,-35.5841,-0.2154,-35.5841
32312.4237,-0.2198,-35.5548,-0.2198,-35.5548
32324.1396,-0.2242,-35.5254,-0.2242,-35.5254
32335.8555,-0.2286,-35.4961,-0.2286,-35.4961
32347.5714,-0.2330,-35.4668,-0.2330,-35.4668
32359.2873,-0.2374,-35.4374,-0.2374,-35.4374
32371.0032,-0.2418,-35.4081,-0.2418,-35.4081
32382.7191,-0.2461,-35.3788,-0.2461,-35.3788
32394.4350,-0.2505,-35.3495,-0.2505,-35.3495
32406.1508,-0.2548,-35.3203,-0.2548,-35.3203
32417.8667,-0.2592,-35.2910,-0.2592,-35.2910
32429.5826,-0.2635,-35.2617,-0.2635,-35.2617
32441.2985,-0.2679,-35.2325,-0.2679,-35.2325
32453.0144,-0.2722,-35.2032,-0.2722,-35.2032
32464.7303,-0.2765,-35.1740,-0.2765,-35.1740
32476.4462,-0.2808,-35.1448,-0.2808,-35.1448
32488.1621,-0.2851,-35.1156,-0.2851,-35.1156
32499.8780,-0.2894,-35.0864,-0.2894,-35.0864
32511.5938,-0.2937,-35.0572,-0.2937,-35.0572
32523.3097,-0.2980,-35.0280,-0.2980,-35.0280
32535.0256,-0.3023,-34.9989,-0.3023,-34.9989
32546.7415,-0.3065,-34.9697,-0.3065,-34.9697
32558.4574,-0.3108,-34.9406,-0.3108,-34.9406
32570.1733,-0.3151,-34.9114,-0.3151,-34.9114
32581.8892,-0.3193,-34.8823,-0.3193,-34.8823
32593.6051,-0.3236,-34.8531,-0.3236,-34.8531
32605.3210,-0.3278,-34.8240,-0.3278,-34.8240
32617.0369,-0.3320,-34.7949,-0.3320,-34.7949
32628.7527,-0.3363,-34.7658,-0.3363,-34.7658
32640.4686,-0.3405,-34.7368,-0.3405,-34.7368
32652.1845,-0.3447,-34.7077,-0.3447,-34.7077
32663.9004,-0.3489,-34.6786,-0.3489,-34.6786
32675.6163,-0.3531,-34.6495,-0.3531,-34.6495
32687.3322,-0.3573,-34.6205,-0.3573,-34.6205
32699.0481,-0.3615,-34.5914,-0.3615,-34.5914
32710.7640,-0.3657,-34.5624,-0.3657,-34.5624
32722.4799,-0.3699,-34.5334,-0.3699,-34.5334
32734.1958,-0.3740,-34.5044,-0.3740,-34.5044
32745.9116,-0.3782,-34.4754,-0.3782,-34.4754
32757.6275,-0.3823,-34.4464,-0.3823,-34.4464
32769.3434,-0.3865,-34.4174,-0.3865,-34.4174
32781.0593,-0.3906,-34.3884,-0.3906,-34.3884
32792.7752,-0.3948,-34.3594,-0.3948,-34.3594
32804.4911,-0.3989,-34.3305,-0.3989,-34.3305
32816.2070,-0.4030,-34.3015,-0.4030,-34.3015
32827.9229,-0.4072,-34.2726,-0.4072,-34.2726
32839.6388,-0.4113,-34.2436,-0.4113,-34.2436
32851.3546,-0.4154,-34.2147,-0.4154,-34.2147
32863.0705,-0.4195,-34.1858,-0.4195,-34.1858
32874.7864,-0.4236,-34.1569,-0.4236,-34.1569
32886.5023,-0.4276,-34.1280,-0.4276,-34.1280
32898.2182,-0.4317,-34.0991,-0.4317,-34.0991
32909.9341,-0.4358,-34.0702,-0.4358,-34.0702
32921.6500,-0.4399,-34.0413,-0.4399,-34.0413
32933.3659,-0.4439,-34.0124,-0.4439,-34.0124
32945.0818,-0.4480,-33.9836,-0.4480,-33.9836
32956.7977,-0.4520,-33.9547,-0.4520,-33.9547
32968.5135,-0.4561,-33.9259,-0.4561,-33.9259
32980.2294,-0.4601,-33.8971,-0.4601,-33.8971
32991.9453,-0.4642,-33.8682,-0.4642,-33.8682
33003.6612,-0.4682,-33.8395,-0.4682,-33.8395
33015.3771,-0.4722,-33.8106,-0.4722,-33.8106
33027.0930,-0.4762,-33.7818,-0.4762,-33.7818
33038.8089,-0.4802,-33.7531,-0.4802,-33.7531
33050.5248,-0.4842,-33.7243,-0.4842,-33.7243
33062.2407,-0.4882,-33.6955,-0.4882,-33.6955
33073.9566,-0.4922,-33.6667,-0.4922,-33.6667
33085.6724,-0.4962,-33.6380,-0.4962,-33.6380
33097.3883,-0.5002,-33.6092,-0.5002,-33.6092
33109.1042,-0.5041,-33.5805,-0.5041,-33.5805
33120.8201,-0.5081,-33.5517,-0.5081,-33.5517
33132.5360,-0.5121,-33.5230,-0.5121,-33.5230
33144.2519,-0.5160,-33.4943,-0.5160,-33.4943
33155.9678,-0.5200,-33.4656,-0.5200,-33.4656
33167.6837,-0.5239,-33.4369,-0.5239,-33.4369
33179.3996,-0.5278,-33.4082,-0.5278,-33.4082
33191.1155,-0.5318,-33.3795,-0.5318,-33.3795
33202.8313,-0.5357,-33.3508,-0.5357,-33.3508
33214.5472,-0.5396,-33.3222,-0.5396,-33.3222
33226.2631,-0.5435,-33.2935,-0.5435,-33.2935
33237.9790,-0.5474,-33.2648,-0.5474,-33.2648
33249.6949,-0.5513,-33.2362,-0.5513,-33.2362
33261.4108,-0.5552,-33.2076,-0.5552,-33.2076
33273.1267,-0.5591,-33.1789,-0.5591,-33.1789
33284.8426,-0.5630,-33.1503,-0.5630,-33.1503
33296.5585,-0.5669,-33.1217,-0.5669,-33.1217
33308.2743,-0.5707,-33.0931,-0.5707,-33.0931
33319.9902,-0.5746,-33.0645,-0.5746,-33.0645
33331.7061,-0.5785,-33.0359,-0.5785,-33.0359
33343.4220,-0.5823,-33.0073,-0.5823,-33.0073
33355.1379,-0.5862,-32.9787,-0.5862,-32.9787
33366.8538,-0.5900,-32.9502,-0.5900,-32.9502
33378.5697,-0.5939,-32.9216,-0.5939,-32.9216
33390.2856,-0.5977,-32.8931,-0.5977,-32.8931
33402.0015,-0.6015,-32.8645,-0.6015,-32.8645
33413.7174,-0.6053,-32.8360,-0.6053,-32.8360
33425.4332,-0.6091,-32.8075,-0.6091,-32.8075
33437.1491,-0.6130,-32.7789,-0.6130,-32.7789
33448.8650,-0.6168,-32.7504,-0.6168,-32.7504
33460.5809,-0.6206,-32.7219,-0.6206,-32.7219
33472.2968,-0.6243,-32.6934,-0.6243,-32.6934
33484.0127,-0.6281,-32.6649,-0.6281,-32.6649
33495.7286,-0.6319,-32.6365,-0.6319,-32.6365
33507.4445,-0.6357,-32.6080,-0.6357,-32.6080
33519.1604,-0.6395,-32.5795,-0.6395,-32.5795
33530.8763,-0.6432,-32.5510,-0.6432,-32.5510
33542.5921,-0.6470,-32.5226,-0.6470,-32.5226
33554.3080,-0.6507,-32.4941,-0.6507,-32.4941
33566.0239,-0.6545,-32.4657,-0.6545,-32.4657
33577.7398,-0.6582,-32.4373,-0.6582,-32.4373
33589.4557,-0.6619,-32.4088,-0.6619,-32.4088
33601.1716,-0.6657,-32.3804,-0.6657,-32.3804
33612.8875,-0.6694,-32.3520,-0.6694,-32.3520
33624.6034,-0.6731,-32.3236,-0.6731,-32.3236
33636.3193,-0.6768,-32.2953,-0.6768,-32.2953
33648.0351,-0.6805,-32.2669,-0.6805,-32.2669
33659.7510,-0.6843,-32.2385,-0.6843,-32.2385
33671.4669,-0.6879,-32.2101,-0.6879,-32.2101
33683.1828,-0.6916,-32.1817,-0.6916,-32.1817
33694.8987,-0.6953,-32.1533,-0.6953,-32.1533
33706.6146,-0.6990,-32.1250,-0.6990,-32.1250
33718.3305,-0.7027,-32.0966,-0.7027,-32.0966
33730.0464,-0.7063,-32.0683,-0.7063,-32.0683
33741.7623,-0.7100,-32.0400,-0.7100,-32.0400
33753.4782,-0.7137,-32.0117,-0.7137,-32.0117
33765.1940,-0.7173,-31.9833,-0.7173,-31.9833
33776.9099,-0.7210,-31.9550,-0.7210,-31.9550
33788.6258,-0.7246,-31.9267,-0.7246,-31.9267
33800.3417,-0.7283,-31.8984,-0.7283,-31.8984
33812.0576,-0.7319,-31.8701,-0.7319,-31.8701
33823.7735,-0.7355,-31.8419,-0.7355,-31.8419
33835.4894,-0.7391,-31.8136,-0.7391,-31.8136
33847.2053,-0.7428,-31.7853,-0.7428,-31.7853
33858.9212,-0.7464,-31.7571,-0.7464,-31.7571
33870.6371,-0.7500,-31.7288,-0.7500,-31.7288
33882.3529,-0.7536,-31.7006,-0.7536,-31.7006
33894.0688,-0.7572,-31.6723,-0.7572,-31.6723
33905.7847,-0.7608,-31.6441,-0.7608,-31.6441
33917.5006,-0.7643,-31.6159,-0.7643,-31.6159
33929.2165,-0.7679,-31.5876,-0.7679,-31.5876
33940.9324,-0.7715,-31.5594,-0.7715,-31.5594
33952.6483,-0.7751,-31.5312,-0.7751,-31.5312
33964.3642,-0.7786,-31.5030,-0.7786,-31.5030
33976.0801,-0.7822,-31.4748,-0.7822,-31.4748
33987.7959,-0.7857,-31.4467,-0.7857,-31.4467
33999.5118,-0.7893,-31.4185,-0.7893,-31.4185
34011.2277,-0.7928,-31.3903,-0.7928,-31.3903
34022.9436,-0.7964,-31.3621,-0.7964,-31.3621
34034.6595,-0.7999,-31.3340,-0.7999,-31.3340
34046.3754,-0.8034,-31.3058,-0.8034,-31.3058
34058.0913,-0.8069,-31.2777,-0.8069,-31.2777
34069.8072,-0.8105,-31.2495,-0.8105,-31.2495
34081.5231,-0.8140,-31.2214,-0.8140,-31.2214
34093.2390,-0.8175,-31.1932,-0.8175,-31.1932
34104.9548,-0.8210,-31.1651,-0.8210,-31.1651
34116.6707,-0.8245,-31.1370,-0.8245,-31.1370
34128.3866,-0.8280,-31.1089,-0.8280,-31.1089
34140.1025,-0.8315,-31.0808,-0.8315,-31.0808
34151.8184,-0.8349,-31.0527,-0.8349,-31.0527
34163.5343,-0.8384,-31.0247,-0.8384,-31.0247
34175.2502,-0.8419,-30.9966,-0.8419,-30.9966
34186.9661,-0.8454,-30.9685,-0.8454,-30.9685
34198.6820,-0.8488,-30.9404,-0.8488,-30.9404
34210.3979,-0.8523,-30.9123,-0.8523,-30.9123
34222.1137,-0.8557,-30.8843,-0.8557,-30.8843
34233.8296,-0.8592,-30.8562,-0.8592,-30.8562
34245.5455,-0.8626,-30.8282,-0.8626,-30.8282
34257.2614,-0.8660,-30.8001,-0.8660,-30.8001
34268.9773,-0.8695,-30.7721,-0.8695,-30.7721
34280.6932,-0.8729,-30.7441,-0.8729,-30.7441
34292.4091,-0.8763,-30.7161,-0.8763,-30.7161
34304.1250,-0.8797,-30.6880,-0.8797,-30.6880
34315.8409,-0.8831,-30.6600,-0.8831,-30.6600
34327.5567,-0.8866,-30.6320,-0.8866,-30.6320
34339.2726,-0.8900,-30.6040,-0.8900,-30.6040
34350.9885,-0.8933,-30.5761,-0.8933,-30.5761
34362.7044,-0.8967,-30.5481,-0.8967,-30.5481
34374.4203,-0.9001,-30.5201,-0.9001,-30.5201
34386.1362,-0.9035,-30.4922,-0.9035,-30.4922
34397.8521,-0.9069,-30.4642,-0.9069,-30.4642
34409.5680,-0.9103,-30.4362,-0.9103,-30.4362
34421.2839,-0.9136,-30.4082,-0.9136,-30.4082
34432.9998,-0.9170,-30.3803,-0.9170,-30.3803
34444.7156,-0.9203,-30.3524,-0.9203,-30.3524
34456.4315,-0.9237,-30.3244,-0.9237,-30.3244
34468.1474,-0.9270,-30.2965,-0.9270,-30.2965
34479.8633,-0.9304,-30.2686,-0.9304,-30.2686
34491.5792,-0.9337,-30.2407,-0.9337,-30.2407
34503.2951,-0.9371,-30.2128,-0.9371,-30.2128
34515.0110,-0.9404,-30.1849,-0.9404,-30.1849
34526.7269,-0.9437,-30.1570,-0.9437,-30.1570
34538.4428,-0.9470,-30.1291,-0.9470,-30.1291
34550.1587,-0.9503,-30.1012,-0.9503,-30.1012
34561.8745,-0.9536,-30.0733,-0.9536,-30.0733
34573.5904,-0.9569,-30.0455,-0.9569,-30.0455
34585.3063,-0.9602,-30.0176,-0.9602,-30.0176
34597.0222,-0.9635,-29.9897,-0.9635,-29.9897
34608.7381,-0.9668,-29.9619,-0.9668,-29.9619
34620.4540,-0.9701,-29.9340,-0.9701,-29.9340
34632.1699,-0.9734,-29.9061,-0.9734,-29.9061
34643.8858,-0.9767,-29.8783,-0.9767,-29.8783
34655.6017,-0.9799,-29.8505,-0.9799,-29.8505
34667.3175,-0.9832,-29.8227,-0.9832,-29.8227
34679.0334,-0.9865,-29.7948,-0.9865,-29.7948
34690.7493,-0.9897,-29.7670,-0.9897,-29.7670
34702.4652,-0.9930,-29.7392,-0.9930,-29.7392
34714.1811,-0.9962,-29.7114,-0.9962,-29.7114
34725.8970,-0.9995,-29.6836,-0.9995,-29.6836
34737.6129,-1.0027,-29.6558,-1.0027,-29.6558
34749.3288,-1.0059,-29.6280,-1.0059,-29.6280
34761.0447,-1.0092,-29.6003,-1.0092,-29.6003
34772.7606,-1.0124,-29.5725,-1.0124,-29.5725
34784.4764,-1.0156,-29.5447,-1.0156,-29.5447
34796.1923,-1.0188,-29.5169,-1.0188,-29.5169
34807.9082,-1.0220,-29.4892,-1.0220,-29.4892
34819.6241,-1.0252,-29.4614,-1.0252,-29.4614
34831.3400,-1.0284,-29.4336,-1.0284,-29.4336
34843.0559,-1.0316,-29.4059,-1.0316,-29.4059
34854.7718,-1.0348,-29.3782,-1.0348,-29.3782
34866.4877,-1.0380,-29.3504,-1.0380,-29.3504
34878.2036,-1.0412,-29.3227,-1.0412,-29.3227
34889.9195,-1.0444,-29.2950,-1.0444,-29.2950
34901.6353,-1.0475,-29.2673,-1.0475,-29.2673
34913.3512,-1.0507,-29.2396,-1.0507,-29.2396
34925.0671,-1.0539,-29.2119,-1.0539,-29.2119
34936.7830,-1.0570,-29.1842,-1.0570,-29.1842
34948.4989,-1.0602,-29.1565,-1.0602,-29.1565
34960.2148,-1.0633,-29.1288,-1.0633,-29.1288
34971.9307,-1.0665,-29.1011,-1.0665,-29.1011
34983.6466,-1.0696,-29.0734,-1.0696,-29.0734
34995.3625,-1.0728,-29.0458,-1.0728,-29.0458
35007.0784,-1.0759,-29.0181,-1.0759,-29.0181
35018.7942,-1.0790,-28.9904,-1.0790,-28.9904
35030.5101,-1.0821,-28.9628,-1.0821,-28.9628
35042.2260,-1.0853,-28.9351,-1.0853,-28.9351
35053.9419,-1.0884,-28.9075,-1.0884,-28.9075
35065.6578,-1.0915,-28.8799,-1.0915,-28.8799
35077.3737,-1.0946,-28.8522,-1.0946,-28.8522
35089.0896,-1.0977,-28.8246,-1.0977,-28.8246
35100.8055,-1.1008,-28.7970,-1.1008,-28.7970
35112.5214,-1.1039,-28.7694,-1.1039,-28.7694
35124.2372,-1.1070,-28.7417,-1.1070,-28.7417
35135.9531,-1.1100,-28.7141,-1.1100,-28.7141
35147.6690,-1.1131,-28.6865,-1.1131,-28.6865
35159.3849,-1.1162,-28.6589,-1.1162,-28.6589
35171.1008,-1.1193,-28.6313,-1.1193,-28.6313
35182.8167,-1.1223,-28.6037,-1.1223,-28.6037
35194.5326,-1.1254,-28.5762,-1.1254,-28.5762
35206.2485,-1.1284,-28.5486,-1.1284,-28.5486
35217.9644,-1.1315,-28.5210,-1.1315,-28.5210
35229.6803,-1.1345,-28.4934,-1.1345,-28.4934
35241.3961,-1.1376,-28.4659,-1.1376,-28.4659
35253.1120,-1.1406,-28.4383,-1.1406,-28.4383
35264.8279,-1.1437,-28.4108,-1.1437,-28.4108
35276.5438,-1.1467,-28.3832,-1.1467,-28.3832
35288.2597,-1.1497,-28.3557,-1.1497,-28.3557
35299.9756,-1.1527,-28.3282,-1.1527,-28.3282
35311.6915,-1.1558,-28.3006,-1.1558,-28.3006
35323.4074,-1.1588,-28.2731,-1.1588,-28.2731
35335.1233,-1.1618,-28.2456,-1.1618,-28.2456
35346.8392,-1.1648,-28.2181,-1.1648,-28.2181
35358.5550,-1.1678,-28.1906,-1.1678,-28.1906
35370.2709,-1.1708,-28.1630,-1.1708,-28.1630
35381.9868,-1.1738,-28.1355,-1.1738,-28.1355
35393.7027,-1.1767,-28.1080,-1.1767,-28.1080
35405.4186,-1.1797,-28.0805,-1.1797,-28.0805
35417.1345,-1.1827,-28.0531,-1.1827,-28.0531
35428.8504,-1.1857,-28.0256,-1.1857,-28.0256
35440.5663,-1.1886,-27.9981,-1.1886,-27.9981
35452.2822,-1.1916,-27.9706,-1.1916,-27.9706
35463.9980,-1.1946,-27.9432,-1.1946,-27.9432
35475.7139,-1.1975,-27.9157,-1.1975,-27.9157
35487.4298,-1.2005,-27.8883,-1.2005,-27.8883
35499.1457,-1.2034,-27.8608,-1.2034,-27.8608
35510.8616,-1.2064,-27.8334,-1.2064,-27.8334
35522.5775,-1.2093,-27.8059,-1.2093,-27.8059
35534.2934,-1.2123,-27.7785,-1.2123,-27.7785
35546.0093,-1.2152,-27.7510,-1.2152,-27.7510
35557.7252,-1.2181,-27.7236,-1.2181,-27.7236
35569.4411,-1.2210,-27.6962,-1.2210,-27.6962
35581.1569,-1.2239,-27.6688,-1.2239,-27.6688
35592.8728,-1.2269,-27.6413,-1.2269,-27.6413
35604.5887,-1.2298,-27.6139,-1.2298,-27.6139
35616.3046,-1.2327,-27.5865,-1.2327,-27.5865
35628.0205,-1.2356,-27.5591,-1.2356,-27.5591
35639.7364,-1.2385,-27.5317,-1.2385,-27.5317
35651.4523,-1.2414,-27.5044,-1.2414,-27.5044
35663.1682,-1.2443,-27.4770,-1.2443,-27.4770
35674.8841,-1.2471,-27.4496,-1.2471,-27.4496
35686.6000,-1.2500,-27.4222,-1.2500,-27.4222
35698.3158,-1.2529,-27.3949,-1.2529,-27.3949
35710.0317,-1.2558,-27.3675,-1.2558,-27.3675
35721.7476,-1.2586,-27.3401,-1.2586,-27.3401
35733.4635,-1.2615,-27.3127,-1.2615,-27.3127
35745.1794,-1.2644,-27.2854,-1.2644,-27.2854
35756.8953,-1.2672,-27.2580,-1.2672,-27.2580
35768.6112,-1.2701,-27.2307,-1.2701,-27.2307
35780.3271,-1.2729,-27.2034,-1.2729,-27.2034
35792.0430,-1.2758,-27.1760,-1.2758,-27.1760
35803.7588,-1.2786,-27.1487,-1.2786,-27.1487
35815.4747,-1.2814,-27.1214,-1.2814,-27.1214
35827.1906,-1.2843,-27.0941,-1.2843,-27.0941
35838.9065,-1.2871,-27.0667,-1.2871,-27.0667
35850.6224,-1.2899,-27.0394,-1.2899,-27.0394
35862.3383,-1.2927,-27.0121,-1.2927,-27.0121
35874.0542,-1.2956,-26.9848,-1.2956,-26.9848
35885.7701,-1.2984,-26.9575,-1.2984,-26.9575
35897.4860,-1.3012,-26.9302,-1.3012,-26.9302
35909.2019,-1.3040,-26.9029,-1.3040,-26.9029
35920.9177,-1.3068,-26.8757,-1.3068,-26.8757
35932.6336,-1.3096,-26.8484,-1.3096,-26.8484
35944.3495,-1.3124,-26.8211,-1.3124,-26.8211
35956.0654,-1.3151,-26.7938,-1.3151,-26.7938
35967.7813,-1.3179,-26.7665,-1.3179,-26.7665
35979.4972,-1.3207,-26.7393,-1.3207,-26.7393
35991.2131,-1.3235,-26.7120,-1.3235,-26.7120
36002.9290,-1.3263,-26.6848,-1.3263,-26.6848
36014.6449,-1.3290,-26.6575,-1.3290,-26.6575
36026.3608,-1.3318,-26.6303,-1.3318,-26.6303
36038.0766,-1.3345,-26.6030,-1.3345,-26.6030
36049.7925,-1.3373,-26.5758,-1.3373,-26.5758
36061.5084,-1.3400,-26.5486,-1.3400,-26.5486
36073.2243,-1.3428,-26.5213,-1.3428,-26.5213
36084.9402,-1.3455,-26.4941,-1.3455,-26.4941
36096.6561,-1.3483,-26.4669,-1.3483,-26.4669
36108.3720,-1.3510,-26.4397,-1.3510,-26.4397
36120.0879,-1.3537,-26.4125,-1.3537,-26.4125
36131.8038,-1.3565,-26.3853,-1.3565,-26.3853
36143.5196,-1.3592,-26.3581,-1.3592,-26.3581
36155.2355,-1.3619,-26.3309,-1.3619,-26.3309
36166.9514,-1.3646,-26.3037,-1.3646,-26.3037
36178.6673,-1.3673,-26.2765,-1.3673,-26.2765
36190.3832,-1.3700,-26.2493,-1.3700,-26.2493
36202.0991,-1.3727,-26.2221,-1.3727,-26.2221
36213.8150,-1.3754,-26.1949,-1.3754,-26.1949
36225.5309,-1.3781,-26.1678,-1.3781,-26.1678
36237.2468,-1.3808,-26.1406,-1.3808,-26.1406
36248.9627,-1.3835,-26.1134,-1.3835,-26.1134
36260.6785,-1.3862,-26.0863,-1.3862,-26.0863
36272.3944,-1.3889,-26.0591,-1.3889,-26.0591
36284.1103,-1.3916,-26.0320,-1.3916,-26.0320
36295.8262,-1.3942,-26.0048,-1.3942,-26.0048
36307.5421,-1.3969,-25.9777,-1.3969,-25.9777
36319.2580,-1.3996,-25.9505,-1.3996,-25.9505
36330.9739,-1.4022,-25.9234,-1.4022,-25.9234
36342.6898,-1.4049,-25.8963,-1.4049,-25.8963
36354.4057,-1.4075,-25.8691,-1.4075,-25.8691
36366.1216,-1.4102,-25.8420,-1.4102,-25.8420
36377.8374,-1.4128,-25.8149,-1.4128,-25.8149
36389.5533,-1.4155,-25.7878,-1.4155,-25.7878
36401.2692,-1.4181,-25.7607,-1.4181,-25.7607
36412.9851,-1.4207,-25.7336,-1.4207,-25.7336
36424.7010,-1.4234,-25.7065,-1.4234,-25.7065
36436.4169,-1.4260,-25.6794,-1.4260,-25.6794
36448.1328,-1.4286,-25.6523,-1.4286,-25.6523
36459.8487,-1.4312,-25.6252,-1.4312,-25.6252
36471.5646,-1.4339,-25.5981,-1.4339,-25.5981
36483.2804,-1.4365,-25.5710,-1.4365,-25.5710
36494.9963,-1.4391,-25.5439,-1.4391,-25.5439
36506.7122,-1.4417,-25.5168,-1.4417,-25.5168
36518.4281,-1.4443,-25.4897,-1.4443,-25.4897
36530.1440,-1.4469,-25.4627,-1.4469,-25.4627
36541.8599,-1.4495,-25.4356,-1.4495,-25.4356
36553.5758,-1.4520,-25.4086,-1.4520,-25.4086
36565.2917,-1.4546,-25.3815,-1.4546,-25.3815
36577.0076,-1.4572,-25.3545,-1.4572,-25.3545
36588.7235,-1.4598,-25.3274,-1.4598,-25.3274
36600.4393,-1.4624,-25.3004,-1.4624,-25.3004
36612.1552,-1.4649,-25.2733,-1.4649,-25.2733
36623.8711,-1.4675,-25.2463,-1.4675,-25.2463
36635.5870,-1.4701,-25.2193,-1.4701,-25.2193
36647.3029,-1.4726,-25.1922,-1.4726,-25.1922
36659.0188,-1.4752,-25.1652,-1.4752,-25.1652
36670.7347,-1.4777,-25.1382,-1.4777,-25.1382
36682.4506,-1.4803,-25.1112,-1.4803,-25.1112
36694.1665,-1.4828,-25.0841,-1.4828,-25.0841
36705.8824,-1.4854,-25.0571,-1.4854,-25.0571
36717.5982,-1.4879,-25.0301,-1.4879,-25.0301
36729.3141,-1.4904,-25.0031,-1.4904,-25.0031
36741.0300,-1.4929,-24.9761,-1.4929,-24.9761
36752.7459,-1.4955,-24.9492,-1.4955,-24.9492
36764.4618,-1.4980,-24.9222,-1.4980,-24.9222
36776.1777,-1.5005,-24.8952,-1.5005,-24.8952
36787.8936,-1.5030,-24.8682,-1.5030,-24.8682
36799.6095,-1.5055,-24.8412,-1.5055,-24.8412
36811.3254,-1.5080,-24.8143,-1.5080,-24.8143
36823.0412,-1.5105,-24.7873,-1.5105,-24.7873
36834.7571,-1.5130,-24.7603,-1.5130,-24.7603
36846.4730,-1.5155,-24.7334,-1.5155,-24.7334
36858.1889,-1.5180,-24.7064,-1.5180,-24.7064
36869.9048,-1.5205,-24.6794,-1.5205,-24.6794
36881.6207,-1.5230,-24.6525,-1.5230,-24.6525
36893.3366,-1.5255,-24.6255,-1.5255,-24.6255
36905.0525,-1.5280,-24.5986,-1.5280,-24.5986
36916.7684,-1.5304,-24.5716,-1.5304,-24.5716
36928.4843,-1.5329,-24.5447,-1.5329,-24.5447
36940.2001,-1.5354,-24.5178,-1.5354,-24.5178
36951.9160,-1.5378,-24.4908,-1.5378,-24.4908
36963.6319,-1.5403,-24.4639,-1.5403,-24.4639
36975.3478,-1.5428,-24.4370,-1.5428,-24.4370
36987.0637,-1.5452,-24.4101,-1.5452,-24.4101
36998.7796,-1.5477,-24.3831,-1.5477,-24.3831
37010.4955,-1.5501,-24.3562,-1.5501,-24.3562
37022.2114,-1.5525,-24.3293,-1.5525,-24.3293
37033.9273,-1.5550,-24.3024,-1.5550,-24.3024
37045.6432,-1.5574,-24.2755,-1.5574,-24.2755
37057.3590,-1.5598,-24.2486,-1.5598,-24.2486
37069.0749,-1.5623,-24.2217,-1.5623,-24.2217
37080.7908,-1.5647,-24.1948,-1.5647,-24.1948
37092.5067,-1.5671,-24.1679,-1.5671,-24.1679
37104.2226,-1.5695,-24.1410,-1.5695,-24.1410
37115.9385,-1.5719,-24.1141,-1.5719,-24.1141
37127.6544,-1.5743,-24.0873,-1.5743,-24.0873
37139.3703,-1.5768,-24.0604,-1.5768,-24.0604
37151.0862,-1.5792,-24.0336,-1.5792,-24.0336
37162.8021,-1.5816,-24.0067,-1.5816,-24.0067
37174.5179,-1.5840,-23.9798,-1.5840,-23.9798
37186.2338,-1.5863,-23.9530,-1.5863,-23.9530
37197.9497,-1.5887,-23.9261,-1.5887,-23.9261
37209.6656,-1.5911,-23.8992,-1.5911,-23.8992
37221.3815,-1.5935,-23.8724,-1.5935,-23.8724
37233.0974,-1.5959,-23.8455,-1.5959,-23.8455
37244.8133,-1.5982,-23.8187,-1.5982,-23.8187
37256.5292,-1.6006,-23.7918,-1.6006,-23.7918
37268.2451,-1.6030,-23.7650,-1.6030,-23.7650
37279.9609,-1.6053,-23.7382,-1.6053,-23.7382
37291.6768,-1.6077,-23.7114,-1.6077,-23.7114
37303.3927,-1.6101,-23.6845,-1.6101,-23.6845
37315.1086,-1.6124,-23.6577,-1.6124,-23.6577
37326.8245,-1.6148,-23.6309,-1.6148,-23.6309
37338.5404,-1.6171,-23.6041,-1.6171,-23.6041
37350.2563,-1.6194,-23.5773,-1.6194,-23.5773
37361.9722,-1.6218,-23.5505,-1.6218,-23.5505
37373.6881,-1.6241,-23.5237,-1.6241,-23.5237
37385.4040,-1.6265,-23.4969,-1.6265,-23.4969
37397.1198,-1.6288,-23.4701,-1.6288,-23.4701
37408.8357,-1.6311,-23.4433,-1.6311,-23.4433
37420.5516,-1.6334,-23.4165,-1.6334,-23.4165
37432.2675,-1.6357,-23.3897,-1.6357,-23.3897
37443.9834,-1.6381,-23.3629,-1.6381,-23.3629
37455.6993,-1.6404,-23.3361,-1.6404,-23.3361
37467.4152,-1.6427,-23.3093,-1.6427,-23.3093
37479.1311,-1.6450,-23.2826,-1.6450,-23.2826
37490.8470,-1.6473,-23.2558,-1.6473,-23.2558
37502.5629,-1.6496,-23.2290,-1.6496,-23.2290
37514.2787,-1.6519,-23.2023,-1.6519,-23.2023
37525.9946,-1.6542,-23.1755,-1.6542,-23.1755
37537.7105,-1.6564,-23.1487,-1.6564,-23.1487
37549.4264,-1.6587,-23.1220,-1.6587,-23.1220
37561.1423,-1.6610,-23.0952,-1.6610,-23.0952
37572.8582,-1.6633,-23.0685,-1.6633,-23.0685
37584.5741,-1.6656,-23.0417,-1.6656,-23.0417
37596.2900,-1.6678,-23.0150,-1.6678,-23.0150
37608.0059,-1.6701,-22.9882,-1.6701,-22.9882
37619.7217,-1.6724,-22.9615,-1.6724,-22.9615
37631.4376,-1.6746,-22.9347,-1.6746,-22.9347
37643.1535,-1.6769,-22.9080,-1.6769,-22.9080
37654.8694,-1.6791,-22.8813,-1.6791,-22.8813
37666.5853,-1.6814,-22.8546,-1.6814,-22.8546
37678.3012,-1.6836,-22.8278,-1.6836,-22.8278
37690.0171,-1.6859,-22.8011,-1.6859,-22.8011
37701.7330,-1.6881,-22.7744,-1.6881,-22.7744
37713.4489,-1.6903,-22.7477,-1.6903,-22.7477
37725.1648,-1.6926,-22.7210,-1.6926,-22.7210
37736.8806,-1.6948,-22.6943,-1.6948,-22.6943
37748.5965,-1.6970,-22.6676,-1.6970,-22.6676
37760.3124,-1.6993,-22.6409,-1.6993,-22.6409
37772.0283,-1.7015,-22.6142,-1.7015,-22.6142
37783.7442,-1.7037,-22.5875,-1.7037,-22.5875
37795.4601,-1.7059,-22.5608,-1.7059,-22.5608
37807.1760,-1.7081,-22.5341,-1.7081,-22.5341
37818.8919,-1.7103,-22.5074,-1.7103,-22.5074
37830.6078,-1.7125,-22.4807,-1.7125,-22.4807
37842.3237,-1.7147,-22.4541,-1.7147,-22.4541
37854.0395,-1.7169,-22.4274,-1.7169,-22.4274
37865.7554,-1.7191,-22.4007,-1.7191,-22.4007
37877.4713,-1.7213,-22.3741,-1.7213,-22.3741
37889.1872,-1.7235,-22.3474,-1.7235,-22.3474
37900.9031,-1.7257,-22.3208,-1.7257,-22.3208
37912.6190,-1.7278,-22.2941,-1.7278,-22.2941
37924.3349,-1.7300,-22.2674,-1.7300,-22.2674
37936.0508,-1.7322,-22.2408,-1.7322,-22.2408
37947.7667,-1.7344,-22.2141,-1.7344,-22.2141
37959.4825,-1.7365,-22.1875,-1.7365,-22.1875
37971.1984,-1.7387,-22.1608,-1.7387,-22.1608
37982.9143,-1.7409,-22.1342,-1.7409,-22.1342
37994.6302,-1.7430,-22.1076,-1.7430,-22.1076
38006.3461,-1.7452,-22.0809,-1.7452,-22.0809
38018.0620,-1.7473,-22.0543,-1.7473,-22.0543
38029.7779,-1.7495,-22.0277,-1.7495,-22.0277
38041.4938,-1.7516,-22.0010,-1.7516,-22.0010
38053.2097,-1.7537,-21.9744,-1.7537,-21.9744
38064.9256,-1.7559,-21.9478,-1.7559,-21.9478
38076.6414,-1.7580,-21.9212,-1.7580,-21.9212
38088.3573,-1.7601,-21.8946,-1.7601,-21.8946
38100.0732,-1.7623,-21.8679,-1.7623,-21.8679
38111.7891,-1.7644,-21.8413,-1.7644,-21.8413
38123.5050,-1.7665,-21.8147,-1.7665,-21.8147
38135.2209,-1.7686,-21.7881,-1.7686,-21.7881
38146.9368,-1.7707,-21.7615,-1.7707,-21.7615
38158.6527,-1.7729,-21.7350,-1.7729,-21.7350
38170.3686,-1.7750,-21.7084,-1.7750,-21.7084
38182.0845,-1.7771,-21.6818,-1.7771,-21.6818
38193.8003,-1.7792,-21.6552,-1.7792,-21.6552
38205.5162,-1.7813,-21.6286,-1.7813,-21.6286
38217.2321,-1.7834,-21.6020,-1.7834,-21.6020
38228.9480,-1.7854,-21.5754,-1.7854,-21.5754
38240.6639,-1.7875,-21.5488,-1.7875,-21.5488
38252.3798,-1.7896,-21.5223,-1.7896,-21.5223
38264.0957,-1.7917,-21.4957,-1.7917,-21.4957
38275.8116,-1.7938,-21.4691,-1.7938,-21.4691
38287.5275,-1.7959,-21.4426,-1.7959,-21.4426
38299.2433,-1.7979,-21.4160,-1.7979,-21.4160
38310.9592,-1.8000,-21.3894,-1.8000,-21.3894
38322.6751,-1.8021,-21.3629,-1.8021,-21.3629
38334.3910,-1.8041,-21.3363,-1.8041,-21.3363
38346.1069,-1.8062,-21.3098,-1.8062,-21.3098
38357.8228,-1.8082,-21.2832,-1.8082,-21.2832
38369.5387,-1.8103,-21.2567,-1.8103,-21.2567
38381.2546,-1.8123,-21.2301,-1.8123,-21.2301
38392.9705,-1.8144,-21.2036,-1.8144,-21.2036
38404.6864,-1.8164,-21.1770,-1.8164,-21.1770
38416.4022,-1.8185,-21.1505,-1.8185,-21.1505
38428.1181,-1.8205,-21.1240,-1.8205,-21.1240
38439.8340,-1.8225,-21.0975,-1.8225,-21.0975
38451.5499,-1.8246,-21.0709,-1.8246,-21.0709
38463.2658,-1.8266,-21.0444,-1.8266,-21.0444
38474.9817,-1.8286,-21.0179,-1.8286,-21.0179
38486.6976,-1.8306,-20.9914,-1.8306,-20.9914
38498.4135,-1.8327,-20.9648,-1.8327,-20.9648
38510.1294,-1.8347,-20.9383,-1.8347,-20.9383
38521.8453,-1.8367,-20.9118,-1.8367,-20.9118
38533.5611,-1.8387,-20.8853,-1.8387,-20.8853
38545.2770,-1.8407,-20.8588,-1.8407,-20.8588
38556.9929,-1.8427,-20.8323,-1.8427,-20.8323
38568.7088,-1.8447,-20.8058,-1.8447,-20.8058
38580.4247,-1.8467,-20.7793,-1.8467,-20.7793
38592.1406,-1.8487,-20.7528,-1.8487,-20.7528
38603.8565,-1.8507,-20.7263,-1.8507,-20.7263
38615.5724,-1.8527,-20.6998,-1.8527,-20.6998
38627.2883,-1.8547,-20.6734,-1.8547,-20.6734
38639.0041,-1.8566,-20.6469,-1.8566,-20.6469
38650.7200,-1.8586,-20.6204,-1.8586,-20.6204
38662.4359,-1.8606,-20.5939,-1.8606,-20.5939
38674.1518,-1.8626,-20.5674,-1.8626,-20.5674
38685.8677,-1.8645,-20.5409,-1.8645,-20.5409
38697.5836,-1.8665,-20.5145,-1.8665,-20.5145
38709.2995,-1.8685,-20.4880,-1.8685,-20.4880
38721.0154,-1.8704,-20.4615,-1.8704,-20.4615
38732.7313,-1.8724,-20.4351,-1.8724,-20.4351
38744.4472,-1.8743,-20.4086,-1.8743,-20.4086
38756.1630,-1.8763,-20.3822,-1.8763,-20.3822
38767.8789,-1.8782,-20.3557,-1.8782,-20.3557
38779.5948,-1.8802,-20.3293,-1.8802,-20.3293
38791.3107,-1.8821,-20.3028,-1.8821,-20.3028
38803.0266,-1.8840,-20.2764,-1.8840,-20.2764
38814.7425,-1.8860,-20.2499,-1.8860,-20.2499
38826.4584,-1.8879,-20.2235,-1.8879,-20.2235
38838.1743,-1.8898,-20.1971,-1.8898,-20.1971
38849.8902,-1.8918,-20.1706,-1.8918,-20.1706
38861.6061,-1.8937,-20.1442,-1.8937,-20.1442
38873.3219,-1.8956,-20.1178,-1.8956,-20.1178
38885.0378,-1.8975,-20.0913,-1.8975,-20.0913
38896.7537,-1.8994,-20.0649,-1.8994,-20.0649
38908.4696,-1.9013,-20.0385,-1.9013,-20.0385
38920.1855,-1.9032,-20.0120,-1.9032,-20.0120
38931.9014,-1.9051,-19.9856,-1.9051,-19.9856
38943.6173,-1.9070,-19.9592,-1.9070,-19.9592
38955.3332,-1.9089,-19.9328,-1.9089,-19.9328
38967.0491,-1.9108,-19.9064,-1.9108,-19.9064
38978.7649,-1.9127,-19.8800,-1.9127,-19.8800
38990.4808,-1.9146,-19.8535,-1.9146,-19.8535
39002.1967,-1.9165,-19.8272,-1.9165,-19.8272
39013.9126,-1.9184,-19.8008,-1.9184,-19.8008
39025.6285,-1.9203,-19.7744,-1.9203,-19.7744
39037.3444,-1.9221,-19.7480,-1.9221,-19.7480
39049.0603,-1.9240,-19.7216,-1.9240,-19.7216
39060.7762,-1.9259,-19.6952,-1.9259,-19.6952
39072.4921,-1.9278,-19.6688,-1.9278,-19.6688
39084.2080,-1.9296,-19.6424,-1.9296,-19.6424
39095.9238,-1.9315,-19.6160,-1.9315,-19.6160
39107.6397,-1.9333,-19.5896,-1.9333,-19.5896
39119.3556,-1.9352,-19.5632,-1.9352,-19.5632
39131.0715,-1.9370,-19.5368,-1.9370,-19.5368
39142.7874,-1.9389,-19.5105,-1.9389,-19.5105
39154.5033,-1.9407,-19.4841,-1.9407,-19.4841
39166.2192,-1.9426,-19.4577,-1.9426,-19.4577
39177.9351,-1.9444,-19.4314,-1.9444,-19.4314
39189.6510,-1.9463,-19.4050,-1.9463,-19.4050
39201.3669,-1.9481,-19.3786,-1.9481,-19.3786
39213.0827,-1.9499,-19.3523,-1.9499,-19.3523
39224.7986,-1.9518,-19.3259,-1.9518,-19.3259
39236.5145,-1.9536,-19.2996,-1.9536,-19.2996
39248.2304,-1.9554,-19.2732,-1.9554,-19.2732
39259.9463,-1.9572,-19.2469,-1.9572,-19.2469
39271.6622,-1.9590,-19.2205,-1.9590,-19.2205
39283.3781,-1.9609,-19.1942,-1.9609,-19.1942
39295.0940,-1.9627,-19.1678,-1.9627,-19.1678
39306.8099,-1.9645,-19.1415,-1.9645,-19.1415
39318.5258,-1.9663,-19.1151,-1.9663,-19.1151
39330.2416,-1.9681,-19.0888,-1.9681,-19.0888
39341.9575,-1.9699,-19.0624,-1.9699,-19.0624
39353.6734,-1.9717,-19.0361,-1.9717,-19.0361
39365.3893,-1.9735,-19.0098,-1.9735,-19.0098
39377.1052,-1.9752,-18.9835,-1.9752,-18.9835
39388.8211,-1.9770,-18.9572,-1.9770,-18.9572
39400.5370,-1.9788,-18.9308,-1.9788,-18.9308
39412.2529,-1.9806,-18.9045,-1.9806,-18.9045
39423.9688,-1.9824,-18.8782,-1.9824,-18.8782
39435.6846,-1.9842,-18.8519,-1.9842,-18.8519
39447.4005,-1.9859,-18.8256,-1.9859,-18.8256
39459.1164,-1.9877,-18.7992,-1.9877,-18.7992
39470.8323,-1.9895,-18.7729,-1.9895,-18.7729
39482.5482,-1.9912,-18.7466,-1.9912,-18.7466
39494.2641,-1.9930,-18.7203,-1.9930,-18.7203
39505.9800,-1.9947,-18.6940,-1.9947,-18.6940
39517.6959,-1.9965,-18.6677,-1.9965,-18.6677
39529.4118,-1.9982,-18.6414,-1.9982,-18.6414
39541.1277,-2.0000,-18.6151,-2.0000,-18.6151
39552.8435,-2.0017,-18.5888,-2.0017,-18.5888
39564.5594,-2.0035,-18.5625,-2.0035,-18.5625
39576.2753,-2.0052,-18.5362,-2.0052,-18.5362
39587.9912,-2.0070,-18.5100,-2.0070,-18.5100
39599.7071,-2.0087,-18.4837,-2.0087,-18.4837
39611.4230,-2.0104,-18.4574,-2.0104,-18.4574
39623.1389,-2.0122,-18.4311,-2.0122,-18.4311
39634.8548,-2.0139,-18.4048,-2.0139,-18.4048
39646.5707,-2.0156,-18.3785,-2.0156,-18.3785
39658.2866,-2.0173,-18.3523,-2.0173,-18.3523
39670.0024,-2.0191,-18.3260,-2.0191,-18.3260
39681.7183,-2.0208,-18.2997,-2.0208,-18.2997
39693.4342,-2.0225,-18.2734,-2.0225,-18.2734
39705.1501,-2.0242,-18.2472,-2.0242,-18.2472
39716.8660,-2.0259,-18.2209,-2.0259,-18.2209
39728.5819,-2.0276,-18.1946,-2.0276,-18.1946
39740.2978,-2.0293,-18.1684,-2.0293,-18.1684
39752.0137,-2.0310,-18.1421,-2.0310,-18.1421
39763.7296,-2.0327,-18.1159,-2.0327,-18.1159
39775.4454,-2.0344,-18.0897,-2.0344,-18.0897
39787.1613,-2.0361,-18.0634,-2.0361,-18.0634
39798.8772,-2.0377,-18.0371,-2.0377,-18.0371
39810.5931,-2.0394,-18.0109,-2.0394,-18.0109
39822.3090,-2.0411,-17.9846,-2.0411,-17.9846
39834.0249,-2.0428,-17.9584,-2.0428,-17.9584
39845.7408,-2.0445,-17.9321,-2.0445,-17.9321
39857.4567,-2.0461,-17.9059,-2.0461,-17.9059
39869.1726,-2.0478,-17.8797,-2.0478,-17.8797
39880.8885,-2.0495,-17.8534,-2.0495,-17.8534
39892.6043,-2.0511,-17.8272,-2.0511,-17.8272
39904.3202,-2.0528,-17.8010,-2.0528,-17.8010
39916.0361,-2.0544,-17.7747,-2.0544,-17.7747
39927.7520,-2.0561,-17.7485,-2.0561,-17.7485
39939.4679,-2.0577,-17.7223,-2.0577,-17.7223
39951.1838,-2.0594,-17.6961,-2.0594,-17.6961
39962.8997,-2.0610,-17.6699,-2.0610,-17.6699
39974.6156,-2.0627,-17.6436,-2.0627,-17.6436
39986.3315,-2.0643,-17.6174,-2.0643,-17.6174
39998.0474,-2.0660,-17.5912,-2.0660,-17.5912
40009.7632,-2.0676,-17.5650,-2.0676,-17.5650
40021.4791,-2.0692,-17.5388,-2.0692,-17.5388
40033.1950,-2.0709,-17.5126,-2.0709,-17.5126
40044.9109,-2.0725,-17.4864,-2.0725,-17.4864
40056.6268,-2.0741,-17.4602,-2.0741,-17.4602
40068.3427,-2.0757,-17.4340,-2.0757,-17.4340
40080.0586,-2.0773,-17.4078,-2.0773,-17.4078
40091.7745,-2.0790,-17.3816,-2.0790,-17.3816
40103.4904,-2.0806,-17.3554,-2.0806,-17.3554
40115.2062,-2.0822,-17.3292,-2.0822,-17.3292
40126.9221,-2.0838,-17.3030,-2.0838,-17.3030
40138.6380,-2.0854,-17.2768,-2.0854,-17.2768
40150.3539,-2.0870,-17.2507,-2.0870,-17.2507
40162.0698,-2.0886,-17.2245,-2.0886,-17.2245
40173.7857,-2.0902,-17.1983,-2.0902,-17.1983
40185.5016,-2.0918,-17.1721,-2.0918,-17.1721
40197.2175,-2.0934,-17.1459,-2.0934,-17.1459
40208.9334,-2.0950,-17.1197,-2.0950,-17.1197
40220.6493,-2.0965,-17.0935,-2.0965,-17.0935
40232.3651,-2.0981,-17.0674,-2.0981,-17.0674
40244.0810,-2.0997,-17.0412,-2.0997,-17.0412
40255.7969,-2.1013,-17.0150,-2.1013,-17.0150
40267.5128,-2.1028,-16.9889,-2.1028,-16.9889
40279.2287,-2.1044,-16.9627,-2.1044,-16.9627
40290.9446,-2.1060,-16.9365,-2.1060,-16.9365
40302.6605,-2.1075,-16.9104,-2.1075,-16.9104
40314.3764,-2.1091,-16.8842,-2.1091,-16.8842
40326.0923,-2.1107,-16.8580,-2.1107,-16.8580
40337.8082,-2.1122,-16.8319,-2.1122,-16.8319
40349.5240,-2.1138,-16.8057,-2.1138,-16.8057
40361.2399,-2.1153,-16.7796,-2.1153,-16.7796
40372.9558,-2.1169,-16.7534,-2.1169,-16.7534
40384.6717,-2.1184,-16.7273,-2.1184,-16.7273
40396.3876,-2.1200,-16.7011,-2.1200,-16.7011
40408.1035,-2.1215,-16.6750,-2.1215,-16.6750
40419.8194,-2.1230,-16.6488,-2.1230,-16.6488
40431.5353,-2.1246,-16.6227,-2.1246,-16.6227
40443.2512,-2.1261,-16.5965,-2.1261,-16.5965
40454.9670,-2.1276,-16.5704,-2.1276,-16.5704
40466.6829,-2.1292,-16.5443,-2.1292,-16.5443
40478.3988,-2.1307,-16.5181,-2.1307,-16.5181
40490.1147,-2.1322,-16.4920,-2.1322,-16.4920
40501.8306,-2.1337,-16.4659,-2.1337,-16.4659
40513.5465,-2.1352,-16.4398,-2.1352,-16.4398
40525.2624,-2.1367,-16.4137,-2.1367,-16.4137
40536.9783,-2.1383,-16.3875,-2.1383,-16.3875
40548.6942,-2.1398,-16.3614,-2.1398,-16.3614
40560.4101,-2.1413,-16.3353,-2.1413,-16.3353
40572.1259,-2.1428,-16.3092,-2.1428,-16.3092
40583.8418,-2.1443,-16.2830,-2.1443,-16.2830
40595.5577,-2.1458,-16.2569,-2.1458,-16.2569
40607.2736,-2.1473,-16.2308,-2.1473,-16.2308
40618.9895,-2.1487,-16.2047,-2.1487,-16.2047
40630.7054,-2.1502,-16.1786,-2.1502,-16.1786
40642.4213,-2.1517,-16.1525,-2.1517,-16.1525
40654.1372,-2.1532,-16.1264,-2.1532,-16.1264
40665.8531,-2.1547,-16.1003,-2.1547,-16.1003
40677.5690,-2.1561,-16.0742,-2.1561,-16.0742
40689.2848,-2.1576,-16.0481,-2.1576,-16.0481
40701.0007,-2.1591,-16.0220,-2.1591,-16.0220
40712.7166,-2.1606,-15.9959,-2.1606,-15.9959
40724.4325,-2.1620,-15.9698,-2.1620,-15.9698
40736.1484,-2.1635,-15.9437,-2.1635,-15.9437
40747.8643,-2.1650,-15.9176,-2.1650,-15.9176
40759.5802,-2.1664,-15.8915,-2.1664,-15.8915
40771.2961,-2.1679,-15.8654,-2.1679,-15.8654
40783.0120,-2.1693,-15.8393,-2.1693,-15.8393
40794.7278,-2.1708,-15.8132,-2.1708,-15.8132
40806.4437,-2.1722,-15.7871,-2.1722,-15.7871
40818.1596,-2.1737,-15.7610,-2.1737,-15.7610
40829.8755,-2.1751,-15.7349,-2.1751,-15.7349
40841.5914,-2.1765,-15.7089,-2.1765,-15.7089
40853.3073,-2.1780,-15.6828,-2.1780,-15.6828
40865.0232,-2.1794,-15.6568,-2.1794,-15.6568
40876.7391,-2.1808,-15.6307,-2.1808,-15.6307
40888.4550,-2.1823,-15.6046,-2.1823,-15.6046
40900.1709,-2.1837,-15.5786,-2.1837,-15.5786
40911.8867,-2.1851,-15.5525,-2.1851,-15.5525
40923.6026,-2.1865,-15.5264,-2.1865,-15.5264
40935.3185,-2.1880,-15.5004,-2.1880,-15.5004
40947.0344,-2.1894,-15.4743,-2.1894,-15.4743
40958.7503,-2.1908,-15.4482,-2.1908,-15.4482
40970.4662,-2.1922,-15.4221,-2.1922,-15.4221
40982.1821,-2.1936,-15.3961,-2.1936,-15.3961
40993.8980,-2.1950,-15.3700,-2.1950,-15.3700
41005.6139,-2.1964,-15.3440,-2.1964,-15.3440
41017.3298,-2.1978,-15.3179,-2.1978,-15.3179
41029.0456,-2.1992,-15.2919,-2.1992,-15.2919
41040.7615,-2.2006,-15.2658,-2.2006,-15.2658
41052.4774,-2.2020,-15.2398,-2.2020,-15.2398
41064.1933,-2.2034,-15.2137,-2.2034,-15.2137
41075.9092,-2.2048,-15.1877,-2.2048,-15.1877
41087.6251,-2.2061,-15.1616,-2.2061,-15.1616
41099.3410,-2.2075,-15.1356,-2.2075,-15.1356
41111.0569,-2.2089,-15.1096,-2.2089,-15.1096
41122.7728,-2.2103,-15.0835,-2.2103,-15.0835
41134.4887,-2.2117,-15.0575,-2.2117,-15.0575
41146.2045,-2.2130,-15.0315,-2.2130,-15.0315
41157.9204,-2.2144,-15.0054,-2.2144,-15.0054
41169.6363,-2.2158,-14.9794,-2.2158,-14.9794
41181.3522,-2.2171,-14.9534,-2.2171,-14.9534
41193.0681,-2.2185,-14.9273,-2.2185,-14.9273
41204.7840,-2.2198,-14.9013,-2.2198,-14.9013
41216.4999,-2.2212,-14.8753,-2.2212,-14.8753
41228.2158,-2.2225,-14.8493,-2.2225,-14.8493
41239.9317,-2.2239,-14.8232,-2.2239,-14.8232
41251.6475,-2.2252,-14.7972,-2.2252,-14.7972
41263.3634,-2.2266,-14.7712,-2.2266,-14.7712
41275.0793,-2.2279,-14.7452,-2.2279,-14.7452
41286.7952,-2.2293,-14.7192,-2.2293,-14.7192
41298.5111,-2.2306,-14.6932,-2.2306,-14.6932
41310.2270,-2.2319,-14.6672,-2.2319,-14.6672
41321.9429,-2.2333,-14.6412,-2.2333,-14.6412
41333.6588,-2.2346,-14.6151,-2.2346,-14.6151
41345.3747,-2.2359,-14.5891,-2.2359,-14.5891
41357.0906,-2.2372,-14.5631,-2.2372,-14.5631
41368.8064,-2.2386,-14.5371,-2.2386,-14.5371
41380.5223,-2.2399,-14.5111,-2.2399,-14.5111
41392.2382,-2.2412,-14.4851,-2.2412,-14.4851
41403.9541,-2.2425,-14.4591,-2.2425,-14.4591
41415.6700,-2.2438,-14.4331,-2.2438,-14.4331
41427.3859,-2.2451,-14.4071,-2.2451,-14.4071
41439.1018,-2.2464,-14.3811,-2.2464,-14.3811
41450.8177,-2.2477,-14.3552,-2.2477,-14.3552
41462.5336,-2.2490,-14.3292,-2.2490,-14.3292
41474.2495,-2.2503,-14.3032,-2.2503,-14.3032
41485.9653,-2.2516,-14.2772,-2.2516,-14.2772
41497.6812,-2.2529,-14.2512,-2.2529,-14.2512
41509.3971,-2.2542,-14.2252,-2.2542,-14.2252
41521.1130,-2.2555,-14.1992,-2.2555,-14.1992
41532.8289,-2.2568,-14.1732,-2.2568,-14.1732
41544.5448,-2.2580,-14.1472,-2.2580,-14.1472
41556.2607,-2.2593,-14.1213,-2.2593,-14.1213
41567.9766,-2.2606,-14.0953,-2.2606,-14.0953
41579.6925,-2.2619,-14.0693,-2.2619,-14.0693
41591.4083,-2.2631,-14.0433,-2.2631,-14.0433
41603.1242,-2.2644,-14.0174,-2.2644,-14.0174
41614.8401,-2.2657,-13.9914,-2.2657,-13.9914
41626.5560,-2.2669,-13.9654,-2.2669,-13.9654
41638.2719,-2.2682,-13.9394,-2.2682,-13.9394
41649.9878,-2.2695,-13.9135,-2.2695,-13.9135
41661.7037,-2.2707,-13.8875,-2.2707,-13.8875
41673.4196,-2.2720,-13.8615,-2.2720,-13.8615
41685.1355,-2.2732,-13.8356,-2.2732,-13.8356
41696.8514,-2.2745,-13.8096,-2.2745,-13.8096
41708.5672,-2.2757,-13.7837,-2.2757,-13.7837
41720.2831,-2.2770,-13.7577,-2.2770,-13.7577
41731.9990,-2.2782,-13.7317,-2.2782,-13.7317
41743.7149,-2.2794,-13.7058,-2.2794,-13.7058
41755.4308,-2.2807,-13.6798,-2.2807,-13.6798
41767.1467,-2.2819,-13.6539,-2.2819,-13.6539
41778.8626,-2.2831,-13.6279,-2.2831,-13.6279
41790.5785,-2.2844,-13.6020,-2.2844,-13.6020
41802.2944,-2.2856,-13.5760,-2.2856,-13.5760
41814.0103,-2.2868,-13.5501,-2.2868,-13.5501
41825.7261,-2.2880,-13.5241,-2.2880,-13.5241
41837.4420,-2.2892,-13.4982,-2.2892,-13.4982
41849.1579,-2.2905,-13.4723,-2.2905,-13.4723
41860.8738,-2.2917,-13.4463,-2.2917,-13.4463
41872.5897,-2.2929,-13.4204,-2.2929,-13.4204
41884.3056,-2.2941,-13.3944,-2.2941,-13.3944
41896.0215,-2.2953,-13.3685,-2.2953,-13.3685
41907.7374,-2.2965,-13.3426,-2.2965,-13.3426
41919.4533,-2.2977,-13.3166,-2.2977,-13.3166
41931.1691,-2.2989,-13.2907,-2.2989,-13.2907
41942.8850,-2.3001,-13.2647,-2.3001,-13.2647
41954.6009,-2.3013,-13.2388,-2.3013,-13.2388
41966.3168,-2.3025,-13.2129,-2.3025,-13.2129
41978.0327,-2.3037,-13.1869,-2.3037,-13.1869
41989.7486,-2.3048,-13.1610,-2.3048,-13.1610
42001.4645,-2.3060,-13.1351,-2.3060,-13.1351
42013.1804,-2.3072,-13.1092,-2.3072,-13.1092
42024.8963,-2.3084,-13.0833,-2.3084,-13.0833
42036.6122,-2.3095,-13.0574,-2.3095,-13.0574
42048.3280,-2.3107,-13.0314,-2.3107,-13.0314
42060.0439,-2.3119,-13.0055,-2.3119,-13.0055
42071.7598,-2.3131,-12.9796,-2.3131,-12.9796
42083.4757,-2.3142,-12.9537,-2.3142,-12.9537
42095.1916,-2.3154,-12.9278,-2.3154,-12.9278
42106.9075,-2.3165,-12.9018,-2.3165,-12.9018
42118.6234,-2.3177,-12.8759,-2.3177,-12.8759
42130.3393,-2.3189,-12.8500,-2.3189,-12.8500
42142.0552,-2.3200,-12.8241,-2.3200,-12.8241
42153.7711,-2.3212,-12.7982,-2.3212,-12.7982
42165.4869,-2.3223,-12.7723,-2.3223,-12.7723
42177.2028,-2.3234,-12.7464,-2.3234,-12.7464
42188.9187,-2.3246,-12.7205,-2.3246,-12.7205
42200.6346,-2.3257,-12.6946,-2.3257,-12.6946
42212.3505,-2.3269,-12.6687,-2.3269,-12.6687
42224.0664,-2.3280,-12.6428,-2.3280,-12.6428
42235.7823,-2.3291,-12.6169,-2.3291,-12.6169
42247.4982,-2.3303,-12.5910,-2.3303,-12.5910
42259.2141,-2.3314,-12.5651,-2.3314,-12.5651
42270.9299,-2.3325,-12.5392,-2.3325,-12.5392
42282.6458,-2.3336,-12.5133,-2.3336,-12.5133
42294.3617,-2.3347,-12.4874,-2.3347,-12.4874
42306.0776,-2.3359,-12.4615,-2.3359,-12.4615
42317.7935,-2.3370,-12.4356,-2.3370,-12.4356
42329.5094,-2.3381,-12.4097,-2.3381,-12.4097
42341.2253,-2.3392,-12.3839,-2.3392,-12.3839
42352.9412,-2.3403,-12.3580,-2.3403,-12.3580
42364.6571,-2.3414,-12.3321,-2.3414,-12.3321
42376.3730,-2.3425,-12.3062,-2.3425,-12.3062
42388.0888,-2.3436,-12.2803,-2.3436,-12.2803
42399.8047,-2.3447,-12.2545,-2.3447,-12.2545
42411.5206,-2.3458,-12.2286,-2.3458,-12.2286
42423.2365,-2.3469,-12.2027,-2.3469,-12.2027
42434.9524,-2.3480,-12.1768,-2.3480,-12.1768
42446.6683,-2.3491,-12.1509,-2.3491,-12.1509
42458.3842,-2.3501,-12.1251,-2.3501,-12.1251
42470.1001,-2.3512,-12.0992,-2.3512,-12.0992
42481.8160,-2.3523,-12.0733,-2.3523,-12.0733
42493.5319,-2.3534,-12.0474,-2.3534,-12.0474
42505.2477,-2.3545,-12.0216,-2.3545,-12.0216
42516.9636,-2.3555,-11.9957,-2.3555,-11.9957
42528.6795,-2.3566,-11.9698,-2.3566,-11.9698
42540.3954,-2.3577,-11.9440,-2.3577,-11.9440
42552.1113,-2.3587,-11.9181,-2.3587,-11.9181
42563.8272,-2.3598,-11.8922,-2.3598,-11.8922
42575.5431,-2.3608,-11.8664,-2.3608,-11.8664
42587.2590,-2.3619,-11.8405,-2.3619,-11.8405
42598.9749,-2.3630,-11.8147,-2.3630,-11.8147
42610.6907,-2.3640,-11.7888,-2.3640,-11.7888
42622.4066,-2.3651,-11.7630,-2.3651,-11.7630
42634.1225,-2.3661,-11.7371,-2.3661,-11.7371
42645.8384,-2.3672,-11.7112,-2.3672,-11.7112
42657.5543,-2.3682,-11.6854,-2.3682,-11.6854
42669.2702,-2.3692,-11.6595,-2.3692,-11.6595
42680.9861,-2.3703,-11.6337,-2.3703,-11.6337
42692.7020,-2.3713,-11.6078,-2.3713,-11.6078
42704.4179,-2.3723,-11.5820,-2.3723,-11.5820
42716.1338,-2.3734,-11.5561,-2.3734,-11.5561
42727.8496,-2.3744,-11.5303,-2.3744,-11.5303
42739.5655,-2.3754,-11.5044,-2.3754,-11.5044
42751.2814,-2.3764,-11.4786,-2.3764,-11.4786
42762.9973,-2.3775,-11.4528,-2.3775,-11.4528
42774.7132,-2.3785,-11.4269,-2.3785,-11.4269
42786.4291,-2.3795,-11.4011,-2.3795,-11.4011
42798.1450,-2.3805,-11.3752,-2.3805,-11.3752
42809.8609,-2.3815,-11.3494,-2.3815,-11.3494
42821.5768,-2.3825,-11.3235,-2.3825,-11.3235
42833.2927,-2.3835,-11.2977,-2.3835,-11.2977
42845.0085,-2.3845,-11.2719,-2.3845,-11.2719
42856.7244,-2.3855,-11.2460,-2.3855,-11.2460
42868.4403,-2.3865,-11.2202,-2.3865,-11.2202
42880.1562,-2.3875,-11.1944,-2.3875,-11.1944
42891.8721,-2.3885,-11.1685,-2.3885,-11.1685
42903.5880,-2.3895,-11.1427,-2.3895,-11.1427
42915.3039,-2.3905,-11.1169,-2.3905,-11.1169
42927.0198,-2.3915,-11.0911,-2.3915,-11.0911
42938.7357,-2.3925,-11.0652,-2.3925,-11.0652
42950.4515,-2.3935,-11.0394,-2.3935,-11.0394
42962.1674,-2.3944,-11.0136,-2.3944,-11.0136
42973.8833,-2.3954,-10.9878,-2.3954,-10.9878
42985.5992,-2.3964,-10.9619,-2.3964,-10.9619
42997.3151,-2.3974,-10.9361,-2.3974,-10.9361
43009.0310,-2.3983,-10.9103,-2.3983,-10.9103
43020.7469,-2.3993,-10.8845,-2.3993,-10.8845
43032.4628,-2.4003,-10.8587,-2.4003,-10.8587
43044.1787,-2.4012,-10.8328,-2.4012,-10.8328
43055.8946,-2.4022,-10.8070,-2.4022,-10.8070
43067.6104,-2.4031,-10.7812,-2.4031,-10.7812
43079.3263,-2.4041,-10.7554,-2.4041,-10.7554
43091.0422,-2.4050,-10.7296,-2.4050,-10.7296
43102.7581,-2.4060,-10.7037,-2.4060,-10.7037
43114.4740,-2.4069,-10.6780,-2.4069,-10.6780
43126.1899,-2.4079,-10.6522,-2.4079,-10.6522
43137.9058,-2.4088,-10.6264,-2.4088,-10.6264
43149.6217,-2.4098,-10.6006,-2.4098,-10.6006
43161.3376,-2.4107,-10.5748,-2.4107,-10.5748
43173.0535,-2.4116,-10.5490,-2.4116,-10.5490
43184.7693,-2.4126,-10.5231,-2.4126,-10.5231
43196.4852,-2.4135,-10.4973,-2.4135,-10.4973
43208.2011,-2.4144,-10.4715,-2.4144,-10.4715
43219.9170,-2.4154,-10.4457,-2.4154,-10.4457
43231.6329,-2.4163,-10.4199,-2.4163,-10.4199
43243.3488,-2.4172,-10.3941,-2.4172,-10.3941
43255.0647,-2.4181,-10.3683,-2.4181,-10.3683
43266.7806,-2.4190,-10.3425,-2.4190,-10.3425
43278.4965,-2.4199,-10.3167,-2.4199,-10.3167
43290.2124,-2.4209,-10.2909,-2.4209,-10.2909
43301.9282,-2.4218,-10.2651,-2.4218,-10.2651
43313.6441,-2.4227,-10.2394,-2.4227,-10.2394
43325.3600,-2.4236,-10.2135,-2.4236,-10.2135
43337.0759,-2.4245,-10.1878,-2.4245,-10.1878
43348.7918,-2.4254,-10.1620,-2.4254,-10.1620
43360.5077,-2.4263,-10.1362,-2.4263,-10.1362
43372.2236,-2.4272,-10.1104,-2.4272,-10.1104
43383.9395,-2.4281,-10.0846,-2.4281,-10.0846
43395.6554,-2.4290,-10.0588,-2.4290,-10.0588
43407.3712,-2.4298,-10.0330,-2.4298,-10.0330
43419.0871,-2.4307,-10.0072,-2.4307,-10.0072
43430.8030,-2.4316,-9.9815,-2.4316,-9.9815
43442.5189,-2.4325,-9.9557,-2.4325,-9.9557
43454.2348,-2.4334,-9.9299,-2.4334,-9.9299
43465.9507,-2.4342,-9.9041,-2.4342,-9.9041
43477.6666,-2.4351,-9.8783,-2.4351,-9.8783
43489.3825,-2.4360,-9.8526,-2.4360,-9.8526
43501.0984,-2.4369,-9.8268,-2.4369,-9.8268
43512.8143,-2.4377,-9.8010,-2.4377,-9.8010
43524.5301,-2.4386,-9.7752,-2.4386,-9.7752
43536.2460,-2.4394,-9.7495,-2.4394,-9.7495
43547.9619,-2.4403,-9.7237,-2.4403,-9.7237
43559.6778,-2.4412,-9.6979,-2.4412,-9.6979
43571.3937,-2.4420,-9.6722,-2.4420,-9.6722
43583.1096,-2.4429,-9.6464,-2.4429,-9.6464
43594.8255,-2.4437,-9.6206,-2.4437,-9.6206
43606.5414,-2.4446,-9.5948,-2.4446,-9.5948
43618.2573,-2.4454,-9.5691,-2.4454,-9.5691
43629.9732,-2.4462,-9.5433,-2.4462,-9.5433
43641.6890,-2.4471,-9.5175,-2.4471,-9.5175
43653.4049,-2.4479,-9.4918,-2.4479,-9.4918
43665.1208,-2.4488,-9.4660,-2.4488,-9.4660
43676.8367,-2.4496,-9.4403,-2.4496,-9.4403
43688.5526,-2.4504,-9.4145,-2.4504,-9.4145
43700.2685,-2.4513,-9.3888,-2.4513,-9.3888
43711.9844,-2.4521,-9.3630,-2.4521,-9.3630
43723.7003,-2.4529,-9.3372,-2.4529,-9.3372
43735.4162,-2.4537,-9.3115,-2.4537,-9.3115
43747.1320,-2.4545,-9.2857,-2.4545,-9.2857
43758.8479,-2.4554,-9.2600,-2.4554,-9.2600
43770.5638,-2.4562,-9.2342,-2.4562,-9.2342
43782.2797,-2.4570,-9.2084,-2.4570,-9.2084
43793.9956,-2.4578,-9.1827,-2.4578,-9.1827
43805.7115,-2.4586,-9.1569,-2.4586,-9.1569
43817.4274,-2.4594,-9.1311,-2.4594,-9.1311
43829.1433,-2.4602,-9.1054,-2.4602,-9.1054
43840.8592,-2.4610,-9.0797,-2.4610,-9.0797
43852.5751,-2.4618,-9.0539,-2.4618,-9.0539
43864.2909,-2.4626,-9.0282,-2.4626,-9.0282
43876.0068,-2.4634,-9.0024,-2.4634,-9.0024
43887.7227,-2.4642,-8.9767,-2.4642,-8.9767
43899.4386,-2.4650,-8.9509,-2.4650,-8.9509
43911.1545,-2.4658,-8.9252,-2.4658,-8.9252
43922.8704,-2.4665,-8.8994,-2.4665,-8.8994
43934.5863,-2.4673,-8.8737,-2.4673,-8.8737
43946.3022,-2.4681,-8.8479,-2.4681,-8.8479
43958.0181,-2.4689,-8.8222,-2.4689,-8.8222
43969.7340,-2.4696,-8.7965,-2.4696,-8.7965
43981.4498,-2.4704,-8.7707,-2.4704,-8.7707
43993.1657,-2.4712,-8.7450,-2.4712,-8.7450
44004.8816,-2.4720,-8.7193,-2.4720,-8.7193
44016.5975,-2.4727,-8.6935,-2.4727,-8.6935
44028.3134,-2.4735,-8.6678,-2.4735,-8.6678
44040.0293,-2.4742,-8.6420,-2.4742,-8.6420
44051.7452,-2.4750,-8.6163,-2.4750,-8.6163
44063.4611,-2.4757,-8.5906,-2.4757,-8.5906
44075.1770,-2.4765,-8.5649,-2.4765,-8.5649
44086.8928,-2.4773,-8.5391,-2.4773,-8.5391
44098.6087,-2.4780,-8.5134,-2.4780,-8.5134
44110.3246,-2.4788,-8.4877,-2.4788,-8.4877
44122.0405,-2.4795,-8.4619,-2.4795,-8.4619
44133.7564,-2.4802,-8.4362,-2.4802,-8.4362
44145.4723,-2.4810,-8.4105,-2.4810,-8.4105
44157.1882,-2.4817,-8.3847,-2.4817,-8.3847
44168.9041,-2.4824,-8.3590,-2.4824,-8.3590
44180.6200,-2.4832,-8.3333,-2.4832,-8.3333
44192.3359,-2.4839,-8.3076,-2.4839,-8.3076
44204.0517,-2.4846,-8.2818,-2.4846,-8.2818
44215.7676,-2.4854,-8.2561,-2.4854,-8.2561
44227.4835,-2.4861,-8.2304,-2.4861,-8.2304
44239.1994,-2.4868,-8.2047,-2.4868,-8.2047
44250.9153,-2.4875,-8.1789,-2.4875,-8.1789
44262.6312,-2.4882,-8.1532,-2.4882,-8.1532
44274.3471,-2.4889,-8.1275,-2.4889,-8.1275
44286.0630,-2.4897,-8.1018,-2.4897,-8.1018
44297.7789,-2.4904,-8.0761,-2.4904,-8.0761
44309.4948,-2.4911,-8.0504,-2.4911,-8.0504
44321.2106,-2.4918,-8.0247,-2.4918,-8.0247
44332.9265,-2.4925,-7.9989,-2.4925,-7.9989
44344.6424,-2.4932,-7.9732,-2.4932,-7.9732
44356.3583,-2.4939,-7.9475,-2.4939,-7.9475
44368.0742,-2.4946,-7.9218,-2.4946,-7.9218
44379.7901,-2.4953,-7.8961,-2.4953,-7.8961
44391.5060,-2.4959,-7.8704,-2.4959,-7.8704
44403.2219,-2.4966,-7.8447,-2.4966,-7.8447
44414.9378,-2.4973,-7.8190,-2.4973,-7.8190
44426.6536,-2.4980,-7.7932,-2.4980,-7.7932
44438.3695,-2.4987,-7.7675,-2.4987,-7.7675
44450.0854,-2.4994,-7.7418,-2.4994,-7.7418
44461.8013,-2.5000,-7.7161,-2.5000,-7.7161
44473.5172,-2.5007,-7.6904,-2.5007,-7.6904
44485.2331,-2.5014,-7.6647,-2.5014,-7.6647
44496.9490,-2.5021,-7.6390,-2.5021,-7.6390
44508.6649,-2.5027,-7.6133,-2.5027,-7.6133
44520.3808,-2.5034,-7.5876,-2.5034,-7.5876
44532.0967,-2.5041,-7.5619,-2.5041,-7.5619
44543.8125,-2.5047,-7.5361,-2.5047,-7.5361
44555.5284,-2.5054,-7.5104,-2.5054,-7.5104
44567.2443,-2.5060,-7.4847,-2.5060,-7.4847
44578.9602,-2.5067,-7.4590,-2.5067,-7.4590
44590.6761,-2.5073,-7.4333,-2.5073,-7.4333
44602.3920,-2.5080,-7.4077,-2.5080,-7.4077
44614.1079,-2.5086,-7.3820,-2.5086,-7.3820
44625.8238,-2.5093,-7.3563,-2.5093,-7.3563
44637.5397,-2.5099,-7.3306,-2.5099,-7.3306
44649.2556,-2.5105,-7.3049,-2.5105,-7.3049
44660.9714,-2.5112,-7.2792,-2.5112,-7.2792
44672.6873,-2.5118,-7.2535,-2.5118,-7.2535
44684.4032,-2.5124,-7.2278,-2.5124,-7.2278
44696.1191,-2.5131,-7.2021,-2.5131,-7.2021
44707.8350,-2.5137,-7.1764,-2.5137,-7.1764
44719.5509,-2.5143,-7.1507,-2.5143,-7.1507
44731.2668,-2.5149,-7.1250,-2.5149,-7.1250
44742.9827,-2.5156,-7.0993,-2.5156,-7.0993
44754.6986,-2.5162,-7.0736,-2.5162,-7.0736
44766.4144,-2.5168,-7.0480,-2.5168,-7.0480
44778.1303,-2.5174,-7.0223,-2.5174,-7.0223
44789.8462,-2.5180,-6.9966,-2.5180,-6.9966
44801.5621,-2.5186,-6.9709,-2.5186,-6.9709
44813.2780,-2.5192,-6.9452,-2.5192,-6.9452
44824.9939,-2.5199,-6.9195,-2.5199,-6.9195
44836.7098,-2.5205,-6.8938,-2.5205,-6.8938
44848.4257,-2.5211,-6.8682,-2.5211,-6.8682
44860.1416,-2.5217,-6.8425,-2.5217,-6.8425
44871.8575,-2.5222,-6.8168,-2.5222,-6.8168
44883.5733,-2.5228,-6.7911,-2.5228,-6.7911
44895.2892,-2.5234,-6.7654,-2.5234,-6.7654
44907.0051,-2.5240,-6.7397,-2.5240,-6.7397
44918.7210,-2.5246,-6.7140,-2.5246,-6.7140
44930.4369,-2.5252,-6.6883,-2.5252,-6.6883
44942.1528,-2.5258,-6.6627,-2.5258,-6.6627
44953.8687,-2.5264,-6.6370,-2.5264,-6.6370
44965.5846,-2.5269,-6.6113,-2.5269,-6.6113
44977.3005,-2.5275,-6.5856,-2.5275,-6.5856
44989.0164,-2.5281,-6.5600,-2.5281,-6.5600
45000.7322,-2.5286,-6.5343,-2.5286,-6.5343
45012.4481,-2.5292,-6.5086,-2.5292,-6.5086
45024.1640,-2.5298,-6.4829,-2.5298,-6.4829
45035.8799,-2.5303,-6.4573,-2.5303,-6.4573
45047.5958,-2.5309,-6.4316,-2.5309,-6.4316
45059.3117,-2.5315,-6.4059,-2.5315,-6.4059
45071.0276,-2.5320,-6.3802,-2.5320,-6.3802
45082.7435,-2.5326,-6.3546,-2.5326,-6.3546
45094.4594,-2.5331,-6.3289,-2.5331,-6.3289
45106.1753,-2.5337,-6.3032,-2.5337,-6.3032
45117.8911,-2.5342,-6.2776,-2.5342,-6.2776
45129.6070,-2.5348,-6.2519,-2.5348,-6.2519
45141.3229,-2.5353,-6.2262,-2.5353,-6.2262
45153.0388,-2.5359,-6.2006,-2.5359,-6.2006
45164.7547,-2.5364,-6.1749,-2.5364,-6.1749
45176.4706,-2.5369,-6.1492,-2.5369,-6.1492
45188.1865,-2.5375,-6.1236,-2.5375,-6.1236
45199.9024,-2.5380,-6.0979,-2.5380,-6.0979
45211.6183,-2.5385,-6.0722,-2.5385,-6.0722
45223.3341,-2.5391,-6.0465,-2.5391,-6.0465
45235.0500,-2.5396,-6.0209,-2.5396,-6.0209
45246.7659,-2.5401,-5.9952,-2.5401,-5.9952
45258.4818,-2.5406,-5.9696,-2.5406,-5.9696
45270.1977,-2.5411,-5.9439,-2.5411,-5.9439
45281.9136,-2.5417,-5.9182,-2.5417,-5.9182
45293.6295,-2.5422,-5.8926,-2.5422,-5.8926
45305.3454,-2.5427,-5.8669,-2.5427,-5.8669
45317.0613,-2.5432,-5.8412,-2.5432,-5.8412
45328.7772,-2.5437,-5.8156,-2.5437,-5.8156
45340.4930,-2.5442,-5.7899,-2.5442,-5.7899
45352.2089,-2.5447,-5.7643,-2.5447,-5.7643
45363.9248,-2.5452,-5.7386,-2.5452,-5.7386
45375.6407,-2.5457,-5.7130,-2.5457,-5.7130
45387.3566,-2.5462,-5.6873,-2.5462,-5.6873
45399.0725,-2.5467,-5.6616,-2.5467,-5.6616
45410.7884,-2.5472,-5.6360,-2.5472,-5.6360
45422.5043,-2.5477,-5.6103,-2.5477,-5.6103
45434.2202,-2.5482,-5.5847,-2.5482,-5.5847
45445.9361,-2.5486,-5.5590,-2.5486,-5.5590
45457.6519,-2.5491,-5.5334,-2.5491,-5.5334
45469.3678,-2.5496,-5.5077,-2.5496,-5.5077
45481.0837,-2.5501,-5.4821,-2.5501,-5.4821
45492.7996,-2.5506,-5.4564,-2.5506,-5.4564
45504.5155,-2.5510,-5.4308,-2.5510,-5.4308
45516.2314,-2.5515,-5.4051,-2.5515,-5.4051
45527.9473,-2.5520,-5.3794,-2.5520,-5.3794
45539.6632,-2.5524,-5.3538,-2.5524,-5.3538
45551.3791,-2.5529,-5.3282,-2.5529,-5.3282
45563.0949,-2.5534,-5.3025,-2.5534,-5.3025
45574.8108,-2.5538,-5.2769,-2.5538,-5.2769
45586.5267,-2.5543,-5.2512,-2.5543,-5.2512
45598.2426,-2.5547,-5.2256,-2.5547,-5.2256
45609.9585,-2.5552,-5.1999,-2.5552,-5.1999
45621.6744,-2.5556,-5.1743,-2.5556,-5.1743
45633.3903,-2.5561,-5.1486,-2.5561,-5.1486
45645.1062,-2.5565,-5.1230,-2.5565,-5.1230
45656.8221,-2.5570,-5.0973,-2.5570,-5.0973
45668.5380,-2.5574,-5.0717,-2.5574,-5.0717
45680.2538,-2.5578,-5.0460,-2.5578,-5.0460
45691.9697,-2.5583,-5.0204,-2.5583,-5.0204
45703.6856,-2.5587,-4.9947,-2.5587,-4.9947
45715.4015,-2.5591,-4.9691,-2.5591,-4.9691
45727.1174,-2.5596,-4.9434,-2.5596,-4.9434
45738.8333,-2.5600,-4.9178,-2.5600,-4.9178
45750.5492,-2.5604,-4.8922,-2.5604,-4.8922
45762.2651,-2.5609,-4.8665,-2.5609,-4.8665
45773.9810,-2.5613,-4.8409,-2.5613,-4.8409
45785.6969,-2.5617,-4.8153,-2.5617,-4.8153
45797.4127,-2.5621,-4.7896,-2.5621,-4.7896
45809.1286,-2.5625,-4.7640,-2.5625,-4.7640
45820.8445,-2.5629,-4.7383,-2.5629,-4.7383
45832.5604,-2.5633,-4.7127,-2.5633,-4.7127
45844.2763,-2.5638,-4.6870,-2.5638,-4.6870
45855.9922,-2.5642,-4.6614,-2.5642,-4.6614
45867.7081,-2.5646,-4.6358,-2.5646,-4.6358
45879.4240,-2.5650,-4.6101,-2.5650,-4.6101
45891.1399,-2.5654,-4.5845,-2.5654,-4.5845
45902.8557,-2.5658,-4.5589,-2.5658,-4.5589
45914.5716,-2.5662,-4.5332,-2.5662,-4.5332
45926.2875,-2.5665,-4.5076,-2.5665,-4.5076
45938.0034,-2.5669,-4.4820,-2.5669,-4.4820
45949.7193,-2.5673,-4.4563,-2.5673,-4.4563
45961.4352,-2.5677,-4.4307,-2.5677,-4.4307
45973.1511,-2.5681,-4.4051,-2.5681,-4.4051
45984.8670,-2.5685,-4.3794,-2.5685,-4.3794
45996.5829,-2.5688,-4.3538,-2.5688,-4.3538
46008.2988,-2.5692,-4.3282,-2.5692,-4.3282
46020.0146,-2.5696,-4.3025,-2.5696,-4.3025
46031.7305,-2.5700,-4.2769,-2.5700,-4.2769
46043.4464,-2.5703,-4.2513,-2.5703,-4.2513
46055.1623,-2.5707,-4.2256,-2.5707,-4.2256
46066.8782,-2.5711,-4.2000,-2.5711,-4.2000
46078.5941,-2.5714,-4.1743,-2.5714,-4.1743
46090.3100,-2.5718,-4.1487,-2.5718,-4.1487
46102.0259,-2.5721,-4.1231,-2.5721,-4.1231
46113.7418,-2.5725,-4.0975,-2.5725,-4.0975
46125.4577,-2.5729,-4.0719,-2.5729,-4.0719
46137.1735,-2.5732,-4.0462,-2.5732,-4.0462
46148.8894,-2.5736,-4.0206,-2.5736,-4.0206
46160.6053,-2.5739,-3.9950,-2.5739,-3.9950
46172.3212,-2.5743,-3.9694,-2.5743,-3.9694
46184.0371,-2.5746,-3.9437,-2.5746,-3.9437
46195.7530,-2.5749,-3.9181,-2.5749,-3.9181
46207.4689,-2.5753,-3.8924,-2.5753,-3.8924
46219.1848,-2.5756,-3.8668,-2.5756,-3.8668
46230.9007,-2.5759,-3.8412,-2.5759,-3.8412
46242.6165,-2.5763,-3.8156,-2.5763,-3.8156
46254.3324,-2.5766,-3.7900,-2.5766,-3.7900
46266.0483,-2.5769,-3.7643,-2.5769,-3.7643
46277.7642,-2.5773,-3.7387,-2.5773,-3.7387
46289.4801,-2.5776,-3.7131,-2.5776,-3.7131
46301.1960,-2.5779,-3.6875,-2.5779,-3.6875
46312.9119,-2.5782,-3.6618,-2.5782,-3.6618
46324.6278,-2.5785,-3.6362,-2.5785,-3.6362
46336.3437,-2.5788,-3.6106,-2.5788,-3.6106
46348.0596,-2.5792,-3.5850,-2.5792,-3.5850
46359.7754,-2.5795,-3.5594,-2.5795,-3.5594
46371.4913,-2.5798,-3.5337,-2.5798,-3.5337
46383.2072,-2.5801,-3.5081,-2.5801,-3.5081
46394.9231,-2.5804,-3.4825,-2.5804,-3.4825
46406.6390,-2.5807,-3.4568,-2.5807,-3.4568
46418.3549,-2.5810,-3.4312,-2.5810,-3.4312
46430.0708,-2.5813,-3.4056,-2.5813,-3.4056
46441.7867,-2.5816,-3.3800,-2.5816,-3.3800
46453.5026,-2.5819,-3.3544,-2.5819,-3.3544
46465.2185,-2.5821,-3.3287,-2.5821,-3.3287
46476.9343,-2.5824,-3.3031,-2.5824,-3.3031
46488.6502,-2.5827,-3.2775,-2.5827,-3.2775
46500.3661,-2.5830,-3.2519,-2.5830,-3.2519
46512.0820,-2.5833,-3.2263,-2.5833,-3.2263
46523.7979,-2.5836,-3.2007,-2.5836,-3.2007
46535.5138,-2.5838,-3.1751,-2.5838,-3.1751
46547.2297,-2.5841,-3.1494,-2.5841,-3.1494
46558.9456,-2.5844,-3.1238,-2.5844,-3.1238
46570.6615,-2.5847,-3.0982,-2.5847,-3.0982
46582.3773,-2.5849,-3.0726,-2.5849,-3.0726
46594.0932,-2.5852,-3.0470,-2.5852,-3.0470
46605.8091,-2.5854,-3.0213,-2.5854,-3.0213
46617.5250,-2.5857,-2.9957,-2.5857,-2.9957
46629.2409,-2.5860,-2.9701,-2.5860,-2.9701
46640.9568,-2.5862,-2.9445,-2.5862,-2.9445
46652.6727,-2.5865,-2.9189,-2.5865,-2.9189
46664.3886,-2.5867,-2.8933,-2.5867,-2.8933
46676.1045,-2.5870,-2.8677,-2.5870,-2.8677
46687.8204,-2.5872,-2.8420,-2.5872,-2.8420
46699.5362,-2.5875,-2.8164,-2.5875,-2.8164
46711.2521,-2.5877,-2.7908,-2.5877,-2.7908
46722.9680,-2.5879,-2.7652,-2.5879,-2.7652
46734.6839,-2.5882,-2.7396,-2.5882,-2.7396
46746.3998,-2.5884,-2.7140,-2.5884,-2.7140
46758.1157,-2.5887,-2.6884,-2.5887,-2.6884
46769.8316,-2.5889,-2.6628,-2.5889,-2.6628
46781.5475,-2.5891,-2.6371,-2.5891,-2.6371
46793.2634,-2.5893,-2.6115,-2.5893,-2.6115
46804.9793,-2.5896,-2.5859,-2.5896,-2.5859
46816.6951,-2.5898,-2.5603,-2.5898,-2.5603
46828.4110,-2.5900,-2.5347,-2.5900,-2.5347
46840.1269,-2.5902,-2.5091,-2.5902,-2.5091
46851.8428,-2.5904,-2.4835,-2.5904,-2.4835
46863.5587,-2.5906,-2.4579,-2.5906,-2.4579
46875.2746,-2.5909,-2.4323,-2.5909,-2.4323
46886.9905,-2.5911,-2.4067,-2.5911,-2.4067
46898.7064,-2.5913,-2.3811,-2.5913,-2.3811
46910.4223,-2.5915,-2.3555,-2.5915,-2.3555
46922.1381,-2.5917,-2.3298,-2.5917,-2.3298
46933.8540,-2.5919,-2.3042,-2.5919,-2.3042
46945.5699,-2.5921,-2.2786,-2.5921,-2.2786
46957.2858,-2.5923,-2.2530,-2.5923,-2.2530
46969.0017,-2.5925,-2.2274,-2.5925,-2.2274
46980.7176,-2.5927,-2.2018,-2.5927,-2.2018
46992.4335,-2.5929,-2.1762,-2.5929,-2.1762
47004.1494,-2.5930,-2.1506,-2.5930,-2.1506
47015.8653,-2.5932,-2.1250,-2.5932,-2.1250
47027.5812,-2.5934,-2.0994,-2.5934,-2.0994
47039.2970,-2.5936,-2.0738,-2.5936,-2.0738
47051.0129,-2.5938,-2.0481,-2.5938,-2.0481
47062.7288,-2.5939,-2.0225,-2.5939,-2.0225
47074.4447,-2.5941,-1.9969,-2.5941,-1.9969
47086.1606,-2.5943,-1.9713,-2.5943,-1.9713
47097.8765,-2.5945,-1.9457,-2.5945,-1.9457
47109.5924,-2.5946,-1.9201,-2.5946,-1.9201
47121.3083,-2.5948,-1.8945,-2.5948,-1.8945
47133.0242,-2.5949,-1.8689,-2.5949,-1.8689
47144.7401,-2.5951,-1.8433,-2.5951,-1.8433
47156.4559,-2.5953,-1.8177,-2.5953,-1.8177
47168.1718,-2.5954,-1.7921,-2.5954,-1.7921
47179.8877,-2.5956,-1.7665,-2.5956,-1.7665
47191.6036,-2.5957,-1.7409,-2.5957,-1.7409
47203.3195,-2.5959,-1.7153,-2.5959,-1.7153
47215.0354,-2.5960,-1.6897,-2.5960,-1.6897
47226.7513,-2.5962,-1.6641,-2.5962,-1.6641
47238.4672,-2.5963,-1.6385,-2.5963,-1.6385
47250.1831,-2.5964,-1.6129,-2.5964,-1.6129
47261.8990,-2.5966,-1.5873,-2.5966,-1.5873
47273.6148,-2.5967,-1.5617,-2.5967,-1.5617
47285.3307,-2.5969,-1.5361,-2.5969,-1.5361
47297.0466,-2.5970,-1.5104,-2.5970,-1.5104
47308.7625,-2.5971,-1.4848,-2.5971,-1.4848
47320.4784,-2.5972,-1.4592,-2.5972,-1.4592
47332.1943,-2.5974,-1.4336,-2.5974,-1.4336
47343.9102,-2.5975,-1.4080,-2.5975,-1.4080
47355.6261,-2.5976,-1.3824,-2.5976,-1.3824
47367.3420,-2.5977,-1.3568,-2.5977,-1.3568
47379.0578,-2.5979,-1.3312,-2.5979,-1.3312
47390.7737,-2.5980,-1.3056,-2.5980,-1.3056
47402.4896,-2.5981,-1.2800,-2.5981,-1.2800
47414.2055,-2.5982,-1.2544,-2.5982,-1.2544
47425.9214,-2.5983,-1.2288,-2.5983,-1.2288
47437.6373,-2.5984,-1.2032,-2.5984,-1.2032
47449.3532,-2.5985,-1.1776,-2.5985,-1.1776
47461.0691,-2.5986,-1.1520,-2.5986,-1.1520
47472.7850,-2.5987,-1.1264,-2.5987,-1.1264
47484.5009,-2.5988,-1.1008,-2.5988,-1.1008
47496.2167,-2.5989,-1.0752,-2.5989,-1.0752
47507.9326,-2.5990,-1.0496,-2.5990,-1.0496
47519.6485,-2.5991,-1.0240,-2.5991,-1.0240
47531.3644,-2.5992,-0.9984,-2.5992,-0.9984
47543.0803,-2.5992,-0.9728,-2.5992,-0.9728
47554.7962,-2.5993,-0.9472,-2.5993,-0.9472
47566.5121,-2.5994,-0.9216,-2.5994,-0.9216
47578.2280,-2.5995,-0.8960,-2.5995,-0.8960
47589.9439,-2.5996,-0.8704,-2.5996,-0.8704
47601.6598,-2.5996,-0.8448,-2.5996,-0.8448
47613.3756,-2.5997,-0.8192,-2.5997,-0.8192
47625.0915,-2.5998,-0.7936,-2.5998,-0.7936
47636.8074,-2.5998,-0.7680,-2.5998,-0.7680
47648.5233,-2.5999,-0.7424,-2.5999,-0.7424
47660.2392,-2.6000,-0.7168,-2.6000,-0.7168
47671.9551,-2.6000,-0.6912,-2.6000,-0.6912
47683.6710,-2.6001,-0.6656,-2.6001,-0.6656
47695.3869,-2.6001,-0.6400,-2.6001,-0.6400
47707.1028,-2.6002,-0.6144,-2.6002,-0.6144
47718.8186,-2.6003,-0.5888,-2.6003,-0.5888
47730.5345,-2.6003,-0.5632,-2.6003,-0.5632
47742.2504,-2.6003,-0.5376,-2.6003,-0.5376
47753.9663,-2.6004,-0.5120,-2.6004,-0.5120
47765.6822,-2.6004,-0.4864,-2.6004,-0.4864
47777.3981,-2.6005,-0.4608,-2.6005,-0.4608
47789.1140,-2.6005,-0.4352,-2.6005,-0.4352
47800.8299,-2.6006,-0.4096,-2.6006,-0.4096
47812.5458,-2.6006,-0.3840,-2.6006,-0.3840
47824.2617,-2.6006,-0.3584,-2.6006,-0.3584
47835.9775,-2.6006,-0.3328,-2.6006,-0.3328
47847.6934,-2.6007,-0.3072,-2.6007,-0.3072
47859.4093,-2.6007,-0.2816,-2.6007,-0.2816
47871.1252,-2.6007,-0.2560,-2.6007,-0.2560
47882.8411,-2.6007,-0.2304,-2.6007,-0.2304
47894.5570,-2.6008,-0.2048,-2.6008,-0.2048
47906.2729,-2.6008,-0.1792,-2.6008,-0.1792
47917.9888,-2.6008,-0.1536,-2.6008,-0.1536
47929.7047,-2.6008,-0.1280,-2.6008,-0.1280
47941.4206,-2.6008,-0.1024,-2.6008,-0.1024
47953.1364,-2.6008,-0.0768,-2.6008,-0.0768
47964.8523,-2.6008,-0.0512,-2.6008,-0.0512
47976.5682,-2.6008,-0.0256,-2.6008,-0.0256
47988.2841,-2.6008,0.0000,-2.6008,0.0000